[TA Ascii File]
DSC-60

File Name :	C:\TAData\2021Akiba\rac-IrC9 2023-08-28 15-48.txt

[File Information]
File Name:	rac-IrC9 2023-08-28 15-48.tad
Sample Name:	rac-IrC9
Lot No:	
Acquire Date:	23/08/28
Acquire Time:	15:48:10(+0900)
Detector Type:	DSC-60
Detector Serial No:	C30945500120SA
Operator:	
Atmosphere:	窒素
Gas Flow:	50[ml/min]
Annotation:	
Pan Name:	ｱﾙﾐﾆｳﾑ
Sample Weight:	2.900[mg]
Molecular Weight:	2070.08


[Measurements Program]
[Temperature Program]
Start Temp.	
Temp. Rate	Hold Temp.	Hold Time
[ C/min  ]	[   C  ]	[ min  ]
10.00	150.0	0
-10.00	-20.0	0
10.00	150.0	0
-10.00	-20.0	0


[Data]
Time	Temp	DSC
sec	ﾟC	mW
0.000000	24.249399	-0.031754
1.000000	24.249001	-0.031567
2.000000	24.248499	-0.031237
3.000000	24.248899	-0.030821
4.000000	24.250401	-0.031242
5.000000	24.254601	-0.033878
6.000000	24.276499	-0.040546
7.000000	24.315701	-0.054017
8.000000	24.377199	-0.076763
9.000000	24.458900	-0.110129
10.000000	24.560801	-0.154105
11.000000	24.678900	-0.207591
12.000000	24.810999	-0.267837
13.000000	24.952099	-0.331583
14.000000	25.099800	-0.395775
15.000000	25.256001	-0.457881
16.000000	25.415600	-0.515768
17.000000	25.577799	-0.568221
18.000000	25.742800	-0.615005
19.000000	25.910500	-0.655800
20.000000	26.076500	-0.690826
21.000000	26.246201	-0.720619
22.000000	26.416800	-0.745838
23.000000	26.588800	-0.766929
24.000000	26.758900	-0.784504
25.000000	26.929199	-0.799147
26.000000	27.100899	-0.811125
27.000000	27.271700	-0.820903
28.000000	27.441799	-0.829021
29.000000	27.613400	-0.835752
30.000000	27.785299	-0.841291
31.000000	27.957300	-0.846056
32.000000	28.126900	-0.850107
33.000000	28.299900	-0.853427
34.000000	28.470400	-0.856379
35.000000	28.645199	-0.858900
36.000000	28.815001	-0.861047
37.000000	28.986799	-0.863009
38.000000	29.159899	-0.864769
39.000000	29.331499	-0.866247
40.000000	29.503300	-0.867630
41.000000	29.677000	-0.868907
42.000000	29.848099	-0.870093
43.000000	30.018099	-0.871170
44.000000	30.189499	-0.872016
45.000000	30.359100	-0.872667
46.000000	30.530600	-0.873284
47.000000	30.702700	-0.873820
48.000000	30.875799	-0.874394
49.000000	31.043999	-0.875068
50.000000	31.215399	-0.875882
51.000000	31.384399	-0.876680
52.000000	31.556099	-0.877465
53.000000	31.726599	-0.878202
54.000000	31.898199	-0.879072
55.000000	32.070900	-0.879876
56.000000	32.241100	-0.880737
57.000000	32.410797	-0.881660
58.000000	32.583500	-0.882760
59.000000	32.755001	-0.883818
60.000000	32.926899	-0.884947
61.000000	33.098099	-0.886056
62.000000	33.267799	-0.886932
63.000000	33.437199	-0.887726
64.000000	33.611401	-0.888472
65.000000	33.782799	-0.889123
66.000000	33.953899	-0.889859
67.000000	34.127201	-0.890792
68.000000	34.294498	-0.891476
69.000000	34.466499	-0.892045
70.000000	34.636700	-0.892634
71.000000	34.807999	-0.893122
72.000000	34.978001	-0.893567
73.000000	35.152599	-0.894184
74.000000	35.322399	-0.894901
75.000000	35.494499	-0.895748
76.000000	35.666901	-0.896556
77.000000	35.838398	-0.897293
78.000000	36.006901	-0.898001
79.000000	36.176098	-0.898795
80.000000	36.347099	-0.899570
81.000000	36.518898	-0.900297
82.000000	36.690899	-0.900929
83.000000	36.860001	-0.901546
84.000000	37.031300	-0.902058
85.000000	37.201401	-0.902512
86.000000	37.370201	-0.903038
87.000000	37.541500	-0.903608
88.000000	37.712299	-0.904119
89.000000	37.883598	-0.904626
90.000000	38.051498	-0.905167
91.000000	38.223099	-0.905578
92.000000	38.394897	-0.906071
93.000000	38.564301	-0.906640
94.000000	38.736900	-0.907358
95.000000	38.906101	-0.907951
96.000000	39.077698	-0.908760
97.000000	39.246399	-0.909625
98.000000	39.418999	-0.910376
99.000000	39.588699	-0.910931
100.000000	39.758698	-0.911606
101.000000	39.931801	-0.912209
102.000000	40.099701	-0.912754
103.000000	40.271099	-0.913395
104.000000	40.441601	-0.914069
105.000000	40.611900	-0.914816
106.000000	40.782200	-0.915581
107.000000	40.952000	-0.916323
108.000000	41.122200	-0.917136
109.000000	41.295998	-0.918102
110.000000	41.463699	-0.918891
111.000000	41.638500	-0.919771
112.000000	41.808998	-0.920661
113.000000	41.979401	-0.921441
114.000000	42.147301	-0.921972
115.000000	42.317898	-0.922647
116.000000	42.489899	-0.923288
117.000000	42.662300	-0.923866
118.000000	42.832699	-0.924402
119.000000	43.004898	-0.925072
120.000000	43.173500	-0.925660
121.000000	43.343800	-0.926196
122.000000	43.512600	-0.926612
123.000000	43.682999	-0.927172
124.000000	43.853699	-0.927794
125.000000	44.022598	-0.928435
126.000000	44.194199	-0.929114
127.000000	44.365997	-0.929937
128.000000	44.536198	-0.930908
129.000000	44.706200	-0.931807
130.000000	44.876198	-0.932668
131.000000	45.046898	-0.933520
132.000000	45.216198	-0.934419
133.000000	45.386700	-0.935127
134.000000	45.557301	-0.935888
135.000000	45.728397	-0.936801
136.000000	45.897499	-0.937586
137.000000	46.067799	-0.938375
138.000000	46.238598	-0.939265
139.000000	46.406998	-0.940040
140.000000	46.580997	-0.940829
141.000000	46.750298	-0.941743
142.000000	46.920898	-0.942647
143.000000	47.090199	-0.943498
144.000000	47.258499	-0.944580
145.000000	47.429298	-0.945670
146.000000	47.601700	-0.946646
147.000000	47.772800	-0.947593
148.000000	47.941498	-0.948583
149.000000	48.110500	-0.949291
150.000000	48.282600	-0.949894
151.000000	48.451099	-0.950569
152.000000	48.624001	-0.951152
153.000000	48.795799	-0.951631
154.000000	48.963501	-0.952229
155.000000	49.133999	-0.952673
156.000000	49.303398	-0.952946
157.000000	49.472900	-0.953367
158.000000	49.642899	-0.953740
159.000000	49.813900	-0.954080
160.000000	49.983299	-0.954506
161.000000	50.154598	-0.955089
162.000000	50.325699	-0.955577
163.000000	50.496498	-0.956161
164.000000	50.666000	-0.956735
165.000000	50.835899	-0.957419
166.000000	51.004101	-0.958218
167.000000	51.174000	-0.959184
168.000000	51.341999	-0.960342
169.000000	51.513699	-0.961782
170.000000	51.684399	-0.963312
171.000000	51.852898	-0.964857
172.000000	52.021198	-0.966541
173.000000	52.192299	-0.968278
174.000000	52.360901	-0.970225
175.000000	52.530899	-0.972239
176.000000	52.700298	-0.974611
177.000000	52.869400	-0.977180
178.000000	53.040100	-0.979969
179.000000	53.209900	-0.982997
180.000000	53.377499	-0.986432
181.000000	53.548397	-0.990149
182.000000	53.717598	-0.994066
183.000000	53.887398	-0.998309
184.000000	54.058899	-1.002615
185.000000	54.229099	-1.006958
186.000000	54.395901	-1.011178
187.000000	54.568897	-1.015272
188.000000	54.737499	-1.019085
189.000000	54.906700	-1.022773
190.000000	55.075397	-1.026189
191.000000	55.243000	-1.029303
192.000000	55.413498	-1.032173
193.000000	55.583401	-1.034790
194.000000	55.751999	-1.037196
195.000000	55.922100	-1.039258
196.000000	56.092697	-1.041348
197.000000	56.259899	-1.043218
198.000000	56.432697	-1.044979
199.000000	56.600597	-1.046572
200.000000	56.770397	-1.048270
201.000000	56.939400	-1.049853
202.000000	57.108200	-1.051652
203.000000	57.278400	-1.053374
204.000000	57.447998	-1.055020
205.000000	57.619400	-1.056560
206.000000	57.789700	-1.058019
207.000000	57.958599	-1.059263
208.000000	58.125797	-1.060368
209.000000	58.297199	-1.061248
210.000000	58.468300	-1.061918
211.000000	58.638599	-1.062205
212.000000	58.806499	-1.062147
213.000000	58.976601	-1.061650
214.000000	59.145500	-1.060851
215.000000	59.315800	-1.059588
216.000000	59.486198	-1.057933
217.000000	59.655499	-1.055929
218.000000	59.826500	-1.053781
219.000000	59.995899	-1.051164
220.000000	60.164898	-1.048361
221.000000	60.337097	-1.045275
222.000000	60.506699	-1.041879
223.000000	60.678898	-1.038014
224.000000	60.847401	-1.034168
225.000000	61.016098	-1.030231
226.000000	61.185600	-1.026299
227.000000	61.355598	-1.022276
228.000000	61.527798	-1.018559
229.000000	61.694798	-1.014770
230.000000	61.864399	-1.011082
231.000000	62.034199	-1.007594
232.000000	62.203098	-1.004284
233.000000	62.374298	-1.001007
234.000000	62.544498	-0.997956
235.000000	62.713997	-0.995042
236.000000	62.882797	-0.992344
237.000000	63.053799	-0.989928
238.000000	63.223999	-0.987828
239.000000	63.392899	-0.986006
240.000000	63.562698	-0.984303
241.000000	63.732098	-0.982743
242.000000	63.900398	-0.981328
243.000000	64.070099	-0.980098
244.000000	64.238998	-0.978864
245.000000	64.408394	-0.977912
246.000000	64.578499	-0.976998
247.000000	64.748497	-0.976424
248.000000	64.915298	-0.975927
249.000000	65.087700	-0.975573
250.000000	65.253899	-0.975348
251.000000	65.424995	-0.975329
252.000000	65.593002	-0.975152
253.000000	65.762299	-0.975104
254.000000	65.931496	-0.975310
255.000000	66.102898	-0.975472
256.000000	66.271797	-0.975625
257.000000	66.442596	-0.975903
258.000000	66.611496	-0.976214
259.000000	66.781296	-0.976338
260.000000	66.951302	-0.976477
261.000000	67.119202	-0.976563
262.000000	67.287300	-0.976515
263.000000	67.456802	-0.976434
264.000000	67.625702	-0.976443
265.000000	67.795601	-0.976525
266.000000	67.963898	-0.976659
267.000000	68.133995	-0.977003
268.000000	68.305099	-0.977204
269.000000	68.474899	-0.977496
270.000000	68.641602	-0.977706
271.000000	68.811897	-0.977936
272.000000	68.981102	-0.978137
273.000000	69.150497	-0.978462
274.000000	69.321297	-0.978673
275.000000	69.488998	-0.978940
276.000000	69.658699	-0.979261
277.000000	69.826302	-0.979491
278.000000	69.994095	-0.979543
279.000000	70.163200	-0.979682
280.000000	70.332001	-0.979868
281.000000	70.502296	-0.979945
282.000000	70.671501	-0.980160
283.000000	70.837898	-0.980586
284.000000	71.006195	-0.981055
285.000000	71.175995	-0.981595
286.000000	71.345100	-0.982356
287.000000	71.513397	-0.983193
288.000000	71.681198	-0.984069
289.000000	71.851196	-0.984930
290.000000	72.019699	-0.985657
291.000000	72.188400	-0.986212
292.000000	72.356400	-0.986676
293.000000	72.525101	-0.986987
294.000000	72.693199	-0.987264
295.000000	72.861595	-0.987695
296.000000	73.029396	-0.988187
297.000000	73.199402	-0.988718
298.000000	73.367699	-0.989221
299.000000	73.535797	-0.989675
300.000000	73.705696	-0.990053
301.000000	73.874397	-0.990373
302.000000	74.041801	-0.990632
303.000000	74.211197	-0.990933
304.000000	74.379097	-0.991306
305.000000	74.548500	-0.991684
306.000000	74.718796	-0.992009
307.000000	74.886299	-0.992349
308.000000	75.053696	-0.992679
309.000000	75.225395	-0.993086
310.000000	75.392899	-0.993425
311.000000	75.563499	-0.993794
312.000000	75.732399	-0.994100
313.000000	75.900497	-0.994406
314.000000	76.070496	-0.994593
315.000000	76.239502	-0.994669
316.000000	76.405197	-0.994660
317.000000	76.576302	-0.994660
318.000000	76.743996	-0.994564
319.000000	76.912598	-0.994411
320.000000	77.081497	-0.994296
321.000000	77.252800	-0.994191
322.000000	77.421402	-0.994052
323.000000	77.591896	-0.993961
324.000000	77.759697	-0.993708
325.000000	77.927002	-0.993263
326.000000	78.096199	-0.992756
327.000000	78.265602	-0.992019
328.000000	78.433701	-0.991144
329.000000	78.601295	-0.990254
330.000000	78.770699	-0.989388
331.000000	78.939995	-0.988331
332.000000	79.109795	-0.987011
333.000000	79.277298	-0.985556
334.000000	79.447701	-0.984011
335.000000	79.615395	-0.982457
336.000000	79.785202	-0.981098
337.000000	79.951897	-0.980122
338.000000	80.122696	-0.979467
339.000000	80.291100	-0.979070
340.000000	80.459000	-0.979031
341.000000	80.627098	-0.979108
342.000000	80.796402	-0.979185
343.000000	80.964897	-0.979189
344.000000	81.135101	-0.979213
345.000000	81.301102	-0.979012
346.000000	81.469200	-0.978783
347.000000	81.635895	-0.978543
348.000000	81.806496	-0.978204
349.000000	81.973297	-0.977840
350.000000	82.144096	-0.977371
351.000000	82.310799	-0.976912
352.000000	82.477600	-0.976491
353.000000	82.647095	-0.976195
354.000000	82.813896	-0.976066
355.000000	82.981895	-0.976104
356.000000	83.149895	-0.976128
357.000000	83.317795	-0.976372
358.000000	83.486900	-0.976778
359.000000	83.652496	-0.977041
360.000000	83.823296	-0.977467
361.000000	83.989998	-0.977950
362.000000	84.159401	-0.978424
363.000000	84.326500	-0.978984
364.000000	84.494995	-0.979677
365.000000	84.662796	-0.980313
366.000000	84.831299	-0.981007
367.000000	85.002098	-0.981744
368.000000	85.169800	-0.982509
369.000000	85.339996	-0.983370
370.000000	85.505798	-0.984193
371.000000	85.674896	-0.984906
372.000000	85.843498	-0.985609
373.000000	86.013000	-0.986078
374.000000	86.180099	-0.986360
375.000000	86.347595	-0.986628
376.000000	86.515594	-0.987164
377.000000	86.680496	-0.987738
378.000000	86.852699	-0.988446
379.000000	87.020401	-0.989398
380.000000	87.188400	-0.990507
381.000000	87.356598	-0.991459
382.000000	87.524200	-0.992402
383.000000	87.691101	-0.993229
384.000000	87.861801	-0.994066
385.000000	88.029396	-0.994722
386.000000	88.197998	-0.995415
387.000000	88.368095	-0.995951
388.000000	88.534195	-0.996583
389.000000	88.701897	-0.996994
390.000000	88.870300	-0.997386
391.000000	89.037102	-0.997764
392.000000	89.206696	-0.998152
393.000000	89.374100	-0.998276
394.000000	89.543297	-0.998396
395.000000	89.711800	-0.998420
396.000000	89.880196	-0.998400
397.000000	90.047798	-0.998410
398.000000	90.217598	-0.998597
399.000000	90.386101	-0.998750
400.000000	90.551697	-0.998960
401.000000	90.720398	-0.999161
402.000000	90.890594	-0.999194
403.000000	91.057396	-0.999171
404.000000	91.227501	-0.999166
405.000000	91.395599	-0.999228
406.000000	91.561897	-0.999046
407.000000	91.727798	-0.998855
408.000000	91.896194	-0.998697
409.000000	92.064598	-0.998463
410.000000	92.229599	-0.998094
411.000000	92.396698	-0.997922
412.000000	92.563599	-0.998013
413.000000	92.735397	-0.998142
414.000000	92.902298	-0.998386
415.000000	93.072899	-0.998750
416.000000	93.240097	-0.999314
417.000000	93.407700	-0.999922
418.000000	93.573997	-1.000486
419.000000	93.741096	-1.001031
420.000000	93.909897	-1.001467
421.000000	94.075798	-1.001845
422.000000	94.244598	-1.002089
423.000000	94.410995	-1.002357
424.000000	94.578995	-1.002844
425.000000	94.746399	-1.003313
426.000000	94.915199	-1.003706
427.000000	95.080894	-1.004150
428.000000	95.249199	-1.004691
429.000000	95.416000	-1.005016
430.000000	95.585594	-1.005480
431.000000	95.752998	-1.005963
432.000000	95.921799	-1.006451
433.000000	96.087700	-1.006920
434.000000	96.255402	-1.007494
435.000000	96.422501	-1.008035
436.000000	96.592796	-1.008637
437.000000	96.759796	-1.009154
438.000000	96.925896	-1.009570
439.000000	97.095398	-1.009962
440.000000	97.261894	-1.010431
441.000000	97.429901	-1.010713
442.000000	97.596794	-1.010943
443.000000	97.763901	-1.011264
444.000000	97.930901	-1.011598
445.000000	98.100700	-1.011962
446.000000	98.265900	-1.012340
447.000000	98.431999	-1.012723
448.000000	98.600700	-1.012943
449.000000	98.767097	-1.013182
450.000000	98.933800	-1.013258
451.000000	99.100700	-1.013445
452.000000	99.269600	-1.013646
453.000000	99.433998	-1.013986
454.000000	99.601196	-1.014220
455.000000	99.767998	-1.014583
456.000000	99.934196	-1.014813
457.000000	100.102501	-1.015282
458.000000	100.269897	-1.015889
459.000000	100.436401	-1.016607
460.000000	100.603195	-1.017320
461.000000	100.772095	-1.018104
462.000000	100.938995	-1.018803
463.000000	101.106300	-1.019396
464.000000	101.274796	-1.020018
465.000000	101.441498	-1.020683
466.000000	101.610298	-1.021367
467.000000	101.776398	-1.021888
468.000000	101.941597	-1.022256
469.000000	102.110001	-1.022529
470.000000	102.275597	-1.022768
471.000000	102.444496	-1.022917
472.000000	102.609901	-1.023194
473.000000	102.777298	-1.023649
474.000000	102.945099	-1.024084
475.000000	103.111900	-1.024634
476.000000	103.278198	-1.025423
477.000000	103.445694	-1.026222
478.000000	103.613297	-1.027059
479.000000	103.780197	-1.027959
480.000000	103.947899	-1.028839
481.000000	104.115097	-1.029700
482.000000	104.281395	-1.030432
483.000000	104.448601	-1.031202
484.000000	104.617096	-1.031838
485.000000	104.784798	-1.032412
486.000000	104.950897	-1.032934
487.000000	105.116997	-1.033441
488.000000	105.284500	-1.033780
489.000000	105.450600	-1.034163
490.000000	105.617897	-1.034464
491.000000	105.787598	-1.034747
492.000000	105.953201	-1.035201
493.000000	106.120895	-1.035665
494.000000	106.289597	-1.035933
495.000000	106.457199	-1.036301
496.000000	106.623199	-1.036607
497.000000	106.791397	-1.036909
498.000000	106.957901	-1.037244
499.000000	107.122498	-1.037818
500.000000	107.293198	-1.038363
501.000000	107.461395	-1.038966
502.000000	107.626801	-1.039530
503.000000	107.794701	-1.040233
504.000000	107.961700	-1.040879
505.000000	108.128998	-1.041544
506.000000	108.296799	-1.042243
507.000000	108.463097	-1.042826
508.000000	108.627495	-1.043175
509.000000	108.794701	-1.043816
510.000000	108.961899	-1.044362
511.000000	109.129295	-1.044845
512.000000	109.296295	-1.045433
513.000000	109.462700	-1.046213
514.000000	109.631798	-1.046730
515.000000	109.798195	-1.047151
516.000000	109.962395	-1.047624
517.000000	110.130196	-1.048083
518.000000	110.295494	-1.048567
519.000000	110.461800	-1.049045
520.000000	110.630501	-1.049676
521.000000	110.796097	-1.050360
522.000000	110.961800	-1.051154
523.000000	111.130898	-1.051939
524.000000	111.297195	-1.052700
525.000000	111.461494	-1.053417
526.000000	111.627998	-1.054087
527.000000	111.792900	-1.054780
528.000000	111.959099	-1.055426
529.000000	112.127197	-1.055986
530.000000	112.291901	-1.056933
531.000000	112.458595	-1.057899
532.000000	112.624901	-1.058966
533.000000	112.790298	-1.060081
534.000000	112.957100	-1.061487
535.000000	113.125694	-1.062659
536.000000	113.292297	-1.063779
537.000000	113.457298	-1.064826
538.000000	113.624794	-1.065941
539.000000	113.790001	-1.066864
540.000000	113.955795	-1.067572
541.000000	114.122894	-1.068419
542.000000	114.288597	-1.069136
543.000000	114.453400	-1.069777
544.000000	114.620300	-1.070648
545.000000	114.786194	-1.071767
546.000000	114.953194	-1.072949
547.000000	115.119698	-1.074355
548.000000	115.286499	-1.075900
549.000000	115.452499	-1.077598
550.000000	115.620201	-1.079297
551.000000	115.784798	-1.080923
552.000000	115.954697	-1.082325
553.000000	116.121094	-1.083798
554.000000	116.287796	-1.085099
555.000000	116.454498	-1.086276
556.000000	116.622696	-1.087371
557.000000	116.788696	-1.088520
558.000000	116.956299	-1.089472
559.000000	117.121498	-1.090352
560.000000	117.287300	-1.091246
561.000000	117.453300	-1.092179
562.000000	117.618401	-1.093088
563.000000	117.785194	-1.094083
564.000000	117.952400	-1.095092
565.000000	118.118896	-1.096126
566.000000	118.282700	-1.097278
567.000000	118.447495	-1.098584
568.000000	118.612000	-1.099976
569.000000	118.780594	-1.101493
570.000000	118.947495	-1.103186
571.000000	119.111694	-1.104899
572.000000	119.277794	-1.106621
573.000000	119.445900	-1.108496
574.000000	119.609200	-1.110409
575.000000	119.775497	-1.112428
576.000000	119.943398	-1.114605
577.000000	120.108994	-1.116906
578.000000	120.273598	-1.119154
579.000000	120.440094	-1.121326
580.000000	120.606697	-1.123369
581.000000	120.770401	-1.125339
582.000000	120.939194	-1.127281
583.000000	121.105301	-1.129099
584.000000	121.269295	-1.131003
585.000000	121.437401	-1.133122
586.000000	121.605797	-1.135241
587.000000	121.770897	-1.137428
588.000000	121.936501	-1.139843
589.000000	122.103699	-1.142259
590.000000	122.269096	-1.144646
591.000000	122.434395	-1.147095
592.000000	122.600197	-1.149702
593.000000	122.766098	-1.152448
594.000000	122.932098	-1.155333
595.000000	123.097099	-1.158409
596.000000	123.261696	-1.161666
597.000000	123.424995	-1.164838
598.000000	123.592094	-1.168000
599.000000	123.759796	-1.171377
600.000000	123.923698	-1.174664
601.000000	124.088600	-1.178156
602.000000	124.252701	-1.181858
603.000000	124.418694	-1.185642
604.000000	124.584595	-1.189507
605.000000	124.749199	-1.193616
606.000000	124.916199	-1.198022
607.000000	125.078499	-1.202634
608.000000	125.243599	-1.207527
609.000000	125.410095	-1.212588
610.000000	125.573997	-1.217941
611.000000	125.742699	-1.223433
612.000000	125.906700	-1.229269
613.000000	126.072395	-1.235540
614.000000	126.237801	-1.242161
615.000000	126.402100	-1.249159
616.000000	126.566498	-1.256344
617.000000	126.732399	-1.263601
618.000000	126.897400	-1.270982
619.000000	127.064796	-1.278718
620.000000	127.228500	-1.286697
621.000000	127.393700	-1.294858
622.000000	127.558395	-1.303497
623.000000	127.722794	-1.312495
624.000000	127.886795	-1.321790
625.000000	128.050888	-1.331390
626.000000	128.214600	-1.341546
627.000000	128.383087	-1.352252
628.000000	128.547089	-1.363312
629.000000	128.708191	-1.374859
630.000000	128.875687	-1.386751
631.000000	129.038696	-1.399055
632.000000	129.203293	-1.411631
633.000000	129.370697	-1.424437
634.000000	129.532089	-1.437458
635.000000	129.697189	-1.450718
636.000000	129.861191	-1.463931
637.000000	130.023392	-1.477043
638.000000	130.187790	-1.489944
639.000000	130.353683	-1.502200
640.000000	130.517288	-1.513432
641.000000	130.683395	-1.523396
642.000000	130.847992	-1.531323
643.000000	131.010483	-1.536791
644.000000	131.176392	-1.539288
645.000000	131.343185	-1.538082
646.000000	131.508896	-1.532280
647.000000	131.675888	-1.521612
648.000000	131.845184	-1.505472
649.000000	132.012985	-1.483836
650.000000	132.182587	-1.457238
651.000000	132.350296	-1.426929
652.000000	132.518188	-1.394381
653.000000	132.684982	-1.361580
654.000000	132.851791	-1.330357
655.000000	133.016693	-1.302191
656.000000	133.184586	-1.277856
657.000000	133.350586	-1.257478
658.000000	133.515289	-1.240946
659.000000	133.679688	-1.227633
660.000000	133.845795	-1.216961
661.000000	134.012589	-1.208417
662.000000	134.177292	-1.201772
663.000000	134.342682	-1.196262
664.000000	134.507294	-1.191799
665.000000	134.670883	-1.188120
666.000000	134.838394	-1.185034
667.000000	135.001389	-1.182269
668.000000	135.167694	-1.180079
669.000000	135.334290	-1.178294
670.000000	135.498093	-1.176854
671.000000	135.664093	-1.175596
672.000000	135.828690	-1.174549
673.000000	135.992783	-1.173563
674.000000	136.159088	-1.172501
675.000000	136.323792	-1.171406
676.000000	136.488693	-1.170239
677.000000	136.653091	-1.169048
678.000000	136.816986	-1.167871
679.000000	136.984085	-1.166775
680.000000	137.146591	-1.165622
681.000000	137.310089	-1.164551
682.000000	137.474091	-1.163518
683.000000	137.636597	-1.162704
684.000000	137.800995	-1.161843
685.000000	137.967590	-1.161298
686.000000	138.132690	-1.161035
687.000000	138.296387	-1.160829
688.000000	138.461182	-1.160595
689.000000	138.624588	-1.160714
690.000000	138.791992	-1.160800
691.000000	138.955490	-1.160820
692.000000	139.121689	-1.161016
693.000000	139.285385	-1.161288
694.000000	139.448486	-1.161441
695.000000	139.615387	-1.161609
696.000000	139.778595	-1.161757
697.000000	139.943192	-1.161666
698.000000	140.107895	-1.161561
699.000000	140.271393	-1.161274
700.000000	140.436386	-1.160968
701.000000	140.598892	-1.160638
702.000000	140.764786	-1.160499
703.000000	140.930283	-1.160380
704.000000	141.094193	-1.160518
705.000000	141.259491	-1.160585
706.000000	141.424484	-1.160705
707.000000	141.589188	-1.160662
708.000000	141.751587	-1.160513
709.000000	141.918289	-1.160025
710.000000	142.081589	-1.159552
711.000000	142.243683	-1.159055
712.000000	142.409088	-1.158715
713.000000	142.574783	-1.158342
714.000000	142.737595	-1.158375
715.000000	142.901382	-1.158662
716.000000	143.066086	-1.159069
717.000000	143.229187	-1.159432
718.000000	143.393295	-1.160007
719.000000	143.558090	-1.160576
720.000000	143.722794	-1.161025
721.000000	143.886383	-1.161399
722.000000	144.049088	-1.161848
723.000000	144.214783	-1.162260
724.000000	144.379089	-1.162379
725.000000	144.541885	-1.162503
726.000000	144.706390	-1.162532
727.000000	144.867584	-1.162451
728.000000	145.032196	-1.162499
729.000000	145.197586	-1.162671
730.000000	145.360291	-1.162838
731.000000	145.525986	-1.163144
732.000000	145.689194	-1.163484
733.000000	145.850891	-1.163781
734.000000	146.016983	-1.164183
735.000000	146.182892	-1.164527
736.000000	146.344894	-1.164714
737.000000	146.510895	-1.164857
738.000000	146.673691	-1.164752
739.000000	146.835693	-1.164575
740.000000	146.998795	-1.164522
741.000000	147.163193	-1.164589
742.000000	147.325882	-1.164752
743.000000	147.491089	-1.165101
744.000000	147.654388	-1.165603
745.000000	147.817093	-1.166134
746.000000	147.980682	-1.166704
747.000000	148.143890	-1.167445
748.000000	148.307785	-1.168196
749.000000	148.472687	-1.168732
750.000000	148.637390	-1.169191
751.000000	148.799194	-1.169521
752.000000	148.963791	-1.169670
753.000000	149.127991	-1.169545
754.000000	149.286285	-1.167019
755.000000	149.427292	-1.158031
756.000000	149.537491	-1.137791
757.000000	149.609482	-1.100441
758.000000	149.637589	-1.040659
759.000000	149.628082	-0.956151
760.000000	149.581192	-0.848333
761.000000	149.507294	-0.721408
762.000000	149.404282	-0.581611
763.000000	149.280396	-0.436398
764.000000	149.145294	-0.293075
765.000000	148.996887	-0.156952
766.000000	148.839294	-0.032117
767.000000	148.674988	0.078734
768.000000	148.510590	0.174651
769.000000	148.342590	0.255830
770.000000	148.174789	0.322848
771.000000	148.008286	0.377133
772.000000	147.839783	0.420291
773.000000	147.673294	0.454165
774.000000	147.504089	0.480269
775.000000	147.335083	0.500116
776.000000	147.170090	0.515252
777.000000	147.002991	0.526809
778.000000	146.836685	0.535640
779.000000	146.670090	0.542370
780.000000	146.505386	0.547757
781.000000	146.338791	0.551899
782.000000	146.175293	0.555009
783.000000	146.011795	0.557353
784.000000	145.843185	0.559319
785.000000	145.681793	0.560730
786.000000	145.515793	0.561935
787.000000	145.352097	0.563174
788.000000	145.189590	0.564461
789.000000	145.025894	0.565676
790.000000	144.861694	0.566953
791.000000	144.696686	0.568384
792.000000	144.532196	0.569776
793.000000	144.368591	0.571177
794.000000	144.203583	0.572412
795.000000	144.039291	0.573541
796.000000	143.874695	0.574555
797.000000	143.709991	0.575473
798.000000	143.546692	0.576243
799.000000	143.384583	0.577176
800.000000	143.219589	0.578047
801.000000	143.057190	0.578817
802.000000	142.892685	0.579563
803.000000	142.730286	0.580266
804.000000	142.565887	0.580960
805.000000	142.404694	0.581768
806.000000	142.239182	0.582629
807.000000	142.075394	0.583447
808.000000	141.908997	0.584232
809.000000	141.744888	0.585103
810.000000	141.580994	0.585959
811.000000	141.420288	0.586901
812.000000	141.255493	0.587877
813.000000	141.091888	0.588930
814.000000	140.927795	0.589901
815.000000	140.763687	0.591077
816.000000	140.601395	0.592173
817.000000	140.435791	0.593278
818.000000	140.271393	0.594517
819.000000	140.107590	0.595756
820.000000	139.942490	0.596875
821.000000	139.781693	0.598061
822.000000	139.618988	0.599248
823.000000	139.453888	0.600449
824.000000	139.289597	0.601534
825.000000	139.126984	0.602663
826.000000	138.962692	0.603730
827.000000	138.798187	0.604806
828.000000	138.633896	0.605902
829.000000	138.468689	0.607170
830.000000	138.305695	0.608236
831.000000	138.140488	0.609375
832.000000	137.976486	0.610657
833.000000	137.814682	0.611776
834.000000	137.649689	0.612790
835.000000	137.483490	0.613900
836.000000	137.320786	0.614871
837.000000	137.158691	0.615737
838.000000	136.994492	0.616584
839.000000	136.831985	0.617464
840.000000	136.670685	0.618402
841.000000	136.504486	0.619392
842.000000	136.338394	0.620506
843.000000	136.174088	0.621855
844.000000	136.010590	0.623343
845.000000	135.848785	0.624917
846.000000	135.684494	0.626668
847.000000	135.519592	0.628471
848.000000	135.354782	0.630322
849.000000	135.189194	0.632088
850.000000	135.027786	0.633977
851.000000	134.863495	0.636058
852.000000	134.699783	0.638110
853.000000	134.535782	0.640028
854.000000	134.371582	0.642219
855.000000	134.205688	0.644358
856.000000	134.040497	0.646362
857.000000	133.875687	0.648414
858.000000	133.711792	0.650653
859.000000	133.547089	0.652676
860.000000	133.382095	0.654576
861.000000	133.218582	0.656446
862.000000	133.055786	0.658163
863.000000	132.891785	0.659728
864.000000	132.729187	0.661397
865.000000	132.565094	0.663138
866.000000	132.399796	0.664980
867.000000	132.236191	0.667133
868.000000	132.073792	0.669424
869.000000	131.910889	0.671998
870.000000	131.746094	0.674868
871.000000	131.582291	0.677838
872.000000	131.417389	0.680847
873.000000	131.252991	0.684095
874.000000	131.089188	0.687367
875.000000	130.925583	0.690687
876.000000	130.758896	0.694093
877.000000	130.596497	0.697801
878.000000	130.430084	0.701613
879.000000	130.266495	0.705521
880.000000	130.100983	0.709535
881.000000	129.935089	0.713783
882.000000	129.772385	0.717964
883.000000	129.606186	0.722235
884.000000	129.442688	0.726756
885.000000	129.277588	0.731353
886.000000	129.115692	0.736051
887.000000	128.950089	0.741131
888.000000	128.786789	0.746441
889.000000	128.620789	0.751832
890.000000	128.459595	0.757606
891.000000	128.294998	0.763786
892.000000	128.129898	0.770282
893.000000	127.964600	0.777085
894.000000	127.800797	0.784275
895.000000	127.635597	0.791847
896.000000	127.473198	0.799673
897.000000	127.307800	0.807705
898.000000	127.146400	0.816009
899.000000	126.979500	0.824601
900.000000	126.816093	0.833412
901.000000	126.652596	0.842382
902.000000	126.488998	0.851791
903.000000	126.325897	0.861688
904.000000	126.160896	0.871992
905.000000	126.000198	0.882808
906.000000	125.834000	0.894059
907.000000	125.671097	0.905287
908.000000	125.506393	0.916323
909.000000	125.342796	0.927210
910.000000	125.180199	0.937672
911.000000	125.014595	0.947670
912.000000	124.850098	0.957242
913.000000	124.687294	0.966383
914.000000	124.522400	0.974994
915.000000	124.358894	0.983045
916.000000	124.193398	0.990512
917.000000	124.027794	0.997329
918.000000	123.863701	1.003294
919.000000	123.700897	1.008288
920.000000	123.534599	1.011972
921.000000	123.370499	1.013990
922.000000	123.204300	1.014076
923.000000	123.038994	1.011814
924.000000	122.872597	1.007001
925.000000	122.708000	0.999328
926.000000	122.543495	0.988450
927.000000	122.377899	0.974310
928.000000	122.208199	0.956969
929.000000	122.039101	0.936337
930.000000	121.873398	0.913175
931.000000	121.703896	0.888539
932.000000	121.540894	0.863525
933.000000	121.372597	0.839272
934.000000	121.204498	0.817028
935.000000	121.038795	0.797171
936.000000	120.871300	0.780180
937.000000	120.704300	0.765877
938.000000	120.539795	0.754056
939.000000	120.371696	0.744211
940.000000	120.207298	0.736362
941.000000	120.043396	0.729722
942.000000	119.876396	0.724168
943.000000	119.711197	0.719432
944.000000	119.544899	0.715237
945.000000	119.379494	0.711472
946.000000	119.211494	0.708105
947.000000	119.048195	0.705105
948.000000	118.884300	0.702555
949.000000	118.720299	0.700326
950.000000	118.553696	0.698226
951.000000	118.386101	0.696523
952.000000	118.219200	0.695026
953.000000	118.054398	0.693596
954.000000	117.892494	0.692429
955.000000	117.726295	0.691410
956.000000	117.559601	0.690137
957.000000	117.393295	0.688946
958.000000	117.227196	0.687879
959.000000	117.061699	0.686779
960.000000	116.896996	0.685760
961.000000	116.728996	0.685071
962.000000	116.562294	0.684258
963.000000	116.397697	0.683445
964.000000	116.232094	0.682651
965.000000	116.065895	0.681938
966.000000	115.899498	0.681240
967.000000	115.735298	0.680661
968.000000	115.568695	0.680139
969.000000	115.403496	0.679704
970.000000	115.237900	0.679393
971.000000	115.072197	0.679307
972.000000	114.906998	0.679288
973.000000	114.739395	0.679379
974.000000	114.574295	0.679623
975.000000	114.408195	0.679871
976.000000	114.241997	0.680101
977.000000	114.075600	0.680288
978.000000	113.908997	0.680340
979.000000	113.744095	0.680249
980.000000	113.577797	0.679982
981.000000	113.411896	0.679618
982.000000	113.245300	0.679168
983.000000	113.081100	0.678618
984.000000	112.916199	0.678188
985.000000	112.748497	0.677819
986.000000	112.581696	0.677427
987.000000	112.418198	0.677106
988.000000	112.249496	0.676863
989.000000	112.083694	0.676614
990.000000	111.918495	0.676327
991.000000	111.751495	0.676183
992.000000	111.585999	0.676068
993.000000	111.420296	0.676083
994.000000	111.255600	0.676112
995.000000	111.089600	0.676241
996.000000	110.919701	0.676317
997.000000	110.756798	0.676456
998.000000	110.588501	0.676480
999.000000	110.423798	0.676523
1000.000000	110.259094	0.676513
1001.000000	110.093094	0.676518
1002.000000	109.925797	0.676556
1003.000000	109.760399	0.676518
1004.000000	109.593399	0.676427
1005.000000	109.429794	0.676379
1006.000000	109.264801	0.676202
1007.000000	109.096298	0.676006
1008.000000	108.930496	0.675853
1009.000000	108.765297	0.675719
1010.000000	108.598801	0.675547
1011.000000	108.434196	0.675408
1012.000000	108.269501	0.675217
1013.000000	108.103996	0.675212
1014.000000	107.935600	0.675231
1015.000000	107.771500	0.675250
1016.000000	107.607201	0.675451
1017.000000	107.440498	0.675796
1018.000000	107.272095	0.676150
1019.000000	107.105598	0.676494
1020.000000	106.940498	0.676843
1021.000000	106.772095	0.677130
1022.000000	106.608597	0.677312
1023.000000	106.442696	0.677298
1024.000000	106.275894	0.677183
1025.000000	106.111397	0.677221
1026.000000	105.945694	0.677260
1027.000000	105.777298	0.677351
1028.000000	105.611694	0.677657
1029.000000	105.445496	0.678288
1030.000000	105.280197	0.678982
1031.000000	105.111496	0.679809
1032.000000	104.943794	0.680833
1033.000000	104.777596	0.681938
1034.000000	104.610794	0.682804
1035.000000	104.446297	0.683636
1036.000000	104.278900	0.684320
1037.000000	104.111595	0.684693
1038.000000	103.945694	0.684832
1039.000000	103.780998	0.684899
1040.000000	103.614998	0.684722
1041.000000	103.446899	0.684717
1042.000000	103.283997	0.684746
1043.000000	103.116096	0.684813
1044.000000	102.949295	0.684918
1045.000000	102.784401	0.685028
1046.000000	102.619797	0.685114
1047.000000	102.454399	0.685258
1048.000000	102.287598	0.685373
1049.000000	102.117699	0.685684
1050.000000	101.953995	0.686062
1051.000000	101.786598	0.686377
1052.000000	101.619896	0.686698
1053.000000	101.455101	0.687057
1054.000000	101.290001	0.687253
1055.000000	101.120895	0.687516
1056.000000	100.953796	0.687851
1057.000000	100.788399	0.688181
1058.000000	100.623398	0.688496
1059.000000	100.455597	0.688927
1060.000000	100.290497	0.689491
1061.000000	100.121300	0.689865
1062.000000	99.956001	0.690257
1063.000000	99.789200	0.690816
1064.000000	99.621300	0.691328
1065.000000	99.455498	0.691687
1066.000000	99.289001	0.692046
1067.000000	99.123695	0.692400
1068.000000	98.956100	0.692572
1069.000000	98.791397	0.692668
1070.000000	98.624596	0.692730
1071.000000	98.458199	0.692768
1072.000000	98.291496	0.692668
1073.000000	98.125099	0.692682
1074.000000	97.960197	0.692749
1075.000000	97.793701	0.692850
1076.000000	97.626701	0.693113
1077.000000	97.460197	0.693567
1078.000000	97.292496	0.693964
1079.000000	97.125099	0.694433
1080.000000	96.958694	0.694969
1081.000000	96.792099	0.695495
1082.000000	96.624802	0.696045
1083.000000	96.460197	0.696710
1084.000000	96.292496	0.697346
1085.000000	96.124901	0.698097
1086.000000	95.957695	0.698930
1087.000000	95.790298	0.699618
1088.000000	95.622398	0.700192
1089.000000	95.454697	0.700733
1090.000000	95.288895	0.701149
1091.000000	95.120499	0.701465
1092.000000	94.954597	0.701790
1093.000000	94.787895	0.702048
1094.000000	94.620094	0.702197
1095.000000	94.453300	0.702240
1096.000000	94.287201	0.702197
1097.000000	94.120598	0.702182
1098.000000	93.953201	0.702288
1099.000000	93.785896	0.702527
1100.000000	93.619095	0.702857
1101.000000	93.453201	0.703235
1102.000000	93.285698	0.703732
1103.000000	93.119095	0.704172
1104.000000	92.954399	0.704550
1105.000000	92.784302	0.704990
1106.000000	92.617500	0.705464
1107.000000	92.450294	0.705799
1108.000000	92.283401	0.706234
1109.000000	92.115601	0.706746
1110.000000	91.947296	0.707200
1111.000000	91.781502	0.707597
1112.000000	91.611900	0.708143
1113.000000	91.444595	0.708530
1114.000000	91.278999	0.708789
1115.000000	91.112000	0.709042
1116.000000	90.945099	0.709454
1117.000000	90.776901	0.709750
1118.000000	90.608002	0.710075
1119.000000	90.440796	0.710621
1120.000000	90.276901	0.711200
1121.000000	90.110100	0.711630
1122.000000	89.942101	0.712075
1123.000000	89.776100	0.712644
1124.000000	89.608696	0.713180
1125.000000	89.440598	0.713721
1126.000000	89.273895	0.714429
1127.000000	89.106995	0.715232
1128.000000	88.939201	0.715950
1129.000000	88.770897	0.716667
1130.000000	88.601898	0.717332
1131.000000	88.435997	0.717964
1132.000000	88.270401	0.718447
1133.000000	88.101700	0.718911
1134.000000	87.933495	0.719332
1135.000000	87.764297	0.719762
1136.000000	87.598495	0.720069
1137.000000	87.433197	0.720437
1138.000000	87.263496	0.720748
1139.000000	87.097198	0.720953
1140.000000	86.931198	0.721159
1141.000000	86.763802	0.721389
1142.000000	86.596802	0.721547
1143.000000	86.432198	0.721867
1144.000000	86.265198	0.722221
1145.000000	86.096802	0.722589
1146.000000	85.928101	0.722929
1147.000000	85.761002	0.723197
1148.000000	85.592201	0.723369
1149.000000	85.425400	0.723537
1150.000000	85.259300	0.723604
1151.000000	85.089600	0.723584
1152.000000	84.923302	0.723656
1153.000000	84.755798	0.723699
1154.000000	84.587395	0.723680
1155.000000	84.422096	0.723728
1156.000000	84.252396	0.723857
1157.000000	84.086098	0.723943
1158.000000	83.918495	0.724058
1159.000000	83.750999	0.724240
1160.000000	83.584496	0.724431
1161.000000	83.416100	0.724771
1162.000000	83.247299	0.725115
1163.000000	83.080200	0.725584
1164.000000	82.912697	0.726201
1165.000000	82.746201	0.726766
1166.000000	82.579597	0.727225
1167.000000	82.410301	0.727813
1168.000000	82.242500	0.728330
1169.000000	82.073097	0.728870
1170.000000	81.905899	0.729554
1171.000000	81.737801	0.730181
1172.000000	81.569496	0.730827
1173.000000	81.401398	0.731396
1174.000000	81.232399	0.731875
1175.000000	81.065399	0.732195
1176.000000	80.896996	0.732520
1177.000000	80.729301	0.732736
1178.000000	80.562195	0.733013
1179.000000	80.394295	0.733233
1180.000000	80.227798	0.733496
1181.000000	80.062195	0.733750
1182.000000	79.893898	0.733951
1183.000000	79.725899	0.734290
1184.000000	79.557297	0.734572
1185.000000	79.391098	0.735065
1186.000000	79.221596	0.735754
1187.000000	79.053795	0.736586
1188.000000	78.886101	0.737314
1189.000000	78.720901	0.738222
1190.000000	78.552498	0.738916
1191.000000	78.383995	0.739476
1192.000000	78.217896	0.739897
1193.000000	78.049400	0.740299
1194.000000	77.883301	0.740724
1195.000000	77.715096	0.741102
1196.000000	77.546600	0.741504
1197.000000	77.377800	0.741997
1198.000000	77.210495	0.742470
1199.000000	77.042099	0.742757
1200.000000	76.875000	0.743154
1201.000000	76.709595	0.743460
1202.000000	76.541100	0.743704
1203.000000	76.372101	0.743977
1204.000000	76.204102	0.744374
1205.000000	76.037201	0.744728
1206.000000	75.868896	0.745226
1207.000000	75.703400	0.745675
1208.000000	75.535500	0.746230
1209.000000	75.366798	0.746742
1210.000000	75.198700	0.747330
1211.000000	75.029297	0.747876
1212.000000	74.863396	0.748326
1213.000000	74.695396	0.748790
1214.000000	74.527397	0.749258
1215.000000	74.357101	0.749660
1216.000000	74.188095	0.750014
1217.000000	74.022697	0.750569
1218.000000	73.852196	0.751047
1219.000000	73.685997	0.751382
1220.000000	73.515602	0.751660
1221.000000	73.348297	0.751980
1222.000000	73.179695	0.752200
1223.000000	73.012596	0.752243
1224.000000	72.847496	0.752353
1225.000000	72.677002	0.752535
1226.000000	72.509895	0.752789
1227.000000	72.339996	0.753162
1228.000000	72.170700	0.753521
1229.000000	72.005600	0.753937
1230.000000	71.838501	0.754252
1231.000000	71.668800	0.754625
1232.000000	71.502197	0.754917
1233.000000	71.332497	0.755286
1234.000000	71.164101	0.755692
1235.000000	70.995598	0.756099
1236.000000	70.830498	0.756324
1237.000000	70.663498	0.756424
1238.000000	70.494598	0.756534
1239.000000	70.325996	0.756534
1240.000000	70.155296	0.756563
1241.000000	69.989601	0.756539
1242.000000	69.820000	0.756673
1243.000000	69.652397	0.756773
1244.000000	69.482002	0.756912
1245.000000	69.316597	0.757056
1246.000000	69.148201	0.757314
1247.000000	68.979897	0.757438
1248.000000	68.811096	0.757768
1249.000000	68.642899	0.758008
1250.000000	68.476097	0.758366
1251.000000	68.307999	0.758744
1252.000000	68.138298	0.759280
1253.000000	67.969795	0.759749
1254.000000	67.800896	0.760366
1255.000000	67.631798	0.760997
1256.000000	67.462097	0.761681
1257.000000	67.294998	0.762361
1258.000000	67.126701	0.763040
1259.000000	66.956398	0.763657
1260.000000	66.789398	0.764241
1261.000000	66.617798	0.764676
1262.000000	66.450500	0.764987
1263.000000	66.283600	0.765188
1264.000000	66.114601	0.765418
1265.000000	65.946899	0.765494
1266.000000	65.778801	0.765513
1267.000000	65.610901	0.765786
1268.000000	65.442902	0.766125
1269.000000	65.275002	0.766422
1270.000000	65.109802	0.766982
1271.000000	64.940002	0.767766
1272.000000	64.771698	0.768527
1273.000000	64.601700	0.769421
1274.000000	64.431496	0.770603
1275.000000	64.264099	0.771737
1276.000000	64.094994	0.772880
1277.000000	63.927498	0.773822
1278.000000	63.757500	0.774631
1279.000000	63.587700	0.775344
1280.000000	63.422501	0.776052
1281.000000	63.254398	0.776697
1282.000000	63.083000	0.777482
1283.000000	62.912300	0.778223
1284.000000	62.741898	0.778950
1285.000000	62.573399	0.779410
1286.000000	62.403999	0.779749
1287.000000	62.237598	0.780008
1288.000000	62.069000	0.780247
1289.000000	61.899700	0.780242
1290.000000	61.730297	0.780519
1291.000000	61.562000	0.780926
1292.000000	61.393497	0.781180
1293.000000	61.225597	0.781424
1294.000000	61.057697	0.781586
1295.000000	60.889900	0.781553
1296.000000	60.721600	0.781376
1297.000000	60.553101	0.781074
1298.000000	60.383297	0.780692
1299.000000	60.214798	0.780323
1300.000000	60.045799	0.779878
1301.000000	59.877098	0.779424
1302.000000	59.707500	0.779065
1303.000000	59.538498	0.778831
1304.000000	59.369801	0.778673
1305.000000	59.200298	0.778510
1306.000000	59.031200	0.778439
1307.000000	58.862400	0.778472
1308.000000	58.694099	0.778453
1309.000000	58.525997	0.778395
1310.000000	58.356598	0.778467
1311.000000	58.188797	0.778439
1312.000000	58.020100	0.778740
1313.000000	57.852699	0.778993
1314.000000	57.682999	0.779228
1315.000000	57.514900	0.779429
1316.000000	57.344700	0.779855
1317.000000	57.177898	0.779926
1318.000000	57.008400	0.780075
1319.000000	56.838898	0.780405
1320.000000	56.669701	0.780912
1321.000000	56.501999	0.781328
1322.000000	56.334297	0.781763
1323.000000	56.165897	0.782313
1324.000000	55.996201	0.782835
1325.000000	55.825199	0.783208
1326.000000	55.657497	0.783729
1327.000000	55.487099	0.784380
1328.000000	55.319401	0.785016
1329.000000	55.151501	0.785681
1330.000000	54.982597	0.786552
1331.000000	54.812901	0.787250
1332.000000	54.645699	0.788035
1333.000000	54.477299	0.788824
1334.000000	54.306297	0.789560
1335.000000	54.135899	0.790264
1336.000000	53.965900	0.791029
1337.000000	53.794899	0.791766
1338.000000	53.627598	0.792388
1339.000000	53.458698	0.793053
1340.000000	53.288700	0.793579
1341.000000	53.117397	0.794000
1342.000000	52.949200	0.794306
1343.000000	52.782299	0.794650
1344.000000	52.611599	0.795004
1345.000000	52.444901	0.795392
1346.000000	52.273701	0.795775
1347.000000	52.104797	0.796129
1348.000000	51.934998	0.796521
1349.000000	51.766197	0.796851
1350.000000	51.596798	0.797061
1351.000000	51.430798	0.797363
1352.000000	51.260201	0.797635
1353.000000	51.089397	0.797836
1354.000000	50.922001	0.798056
1355.000000	50.753399	0.798262
1356.000000	50.585697	0.798410
1357.000000	50.416100	0.798472
1358.000000	50.246899	0.798611
1359.000000	50.076698	0.798530
1360.000000	49.906700	0.798401
1361.000000	49.737999	0.798310
1362.000000	49.569000	0.798310
1363.000000	49.400398	0.798166
1364.000000	49.232098	0.798262
1365.000000	49.062500	0.798439
1366.000000	48.891598	0.798635
1367.000000	48.721199	0.798798
1368.000000	48.553799	0.799123
1369.000000	48.384300	0.799544
1370.000000	48.214798	0.800037
1371.000000	48.042801	0.800496
1372.000000	47.875698	0.800994
1373.000000	47.706699	0.801443
1374.000000	47.539898	0.801797
1375.000000	47.368099	0.802099
1376.000000	47.198601	0.802386
1377.000000	47.029301	0.802792
1378.000000	46.860600	0.803227
1379.000000	46.691898	0.803648
1380.000000	46.520901	0.804160
1381.000000	46.350399	0.804744
1382.000000	46.181599	0.805189
1383.000000	46.011497	0.805586
1384.000000	45.844101	0.805925
1385.000000	45.675800	0.806236
1386.000000	45.504799	0.806380
1387.000000	45.334099	0.806576
1388.000000	45.164101	0.806739
1389.000000	44.994301	0.806777
1390.000000	44.825901	0.806916
1391.000000	44.654400	0.807035
1392.000000	44.485600	0.807131
1393.000000	44.317699	0.807150
1394.000000	44.147800	0.807279
1395.000000	43.977398	0.807241
1396.000000	43.806499	0.807322
1397.000000	43.638199	0.807370
1398.000000	43.469498	0.807480
1399.000000	43.297798	0.807648
1400.000000	43.131500	0.807968
1401.000000	42.961098	0.808241
1402.000000	42.789600	0.808513
1403.000000	42.622700	0.808863
1404.000000	42.453999	0.809164
1405.000000	42.284199	0.809394
1406.000000	42.113400	0.809671
1407.000000	41.943501	0.810039
1408.000000	41.775600	0.810350
1409.000000	41.603600	0.810767
1410.000000	41.434998	0.811125
1411.000000	41.265598	0.811417
1412.000000	41.098198	0.811680
1413.000000	40.927498	0.812015
1414.000000	40.758999	0.812283
1415.000000	40.588699	0.812584
1416.000000	40.418098	0.812871
1417.000000	40.249901	0.813149
1418.000000	40.080101	0.813335
1419.000000	39.911400	0.813574
1420.000000	39.741600	0.813737
1421.000000	39.572300	0.813928
1422.000000	39.401600	0.814268
1423.000000	39.232098	0.814641
1424.000000	39.064400	0.814943
1425.000000	38.894001	0.815278
1426.000000	38.722801	0.815646
1427.000000	38.556099	0.816033
1428.000000	38.384998	0.816473
1429.000000	38.216301	0.816957
1430.000000	38.046299	0.817502
1431.000000	37.876301	0.818014
1432.000000	37.706799	0.818444
1433.000000	37.536301	0.818889
1434.000000	37.366001	0.819324
1435.000000	37.196499	0.819817
1436.000000	37.025600	0.820372
1437.000000	36.856998	0.820951
1438.000000	36.686798	0.821434
1439.000000	36.514999	0.822032
1440.000000	36.344200	0.822673
1441.000000	36.176399	0.823371
1442.000000	36.006298	0.824041
1443.000000	35.836998	0.824811
1444.000000	35.662800	0.825639
1445.000000	35.492599	0.826323
1446.000000	35.321999	0.827017
1447.000000	35.150200	0.827619
1448.000000	34.979298	0.828136
1449.000000	34.808399	0.828442
1450.000000	34.638199	0.828806
1451.000000	34.463898	0.829341
1452.000000	34.291698	0.829987
1453.000000	34.117500	0.830877
1454.000000	33.946098	0.831829
1455.000000	33.773998	0.832685
1456.000000	33.602600	0.833135
1457.000000	33.431801	0.833393
1458.000000	33.262398	0.833417
1459.000000	33.091698	0.833326
1460.000000	32.919098	0.833101
1461.000000	32.749100	0.832814
1462.000000	32.579300	0.832647
1463.000000	32.409500	0.832508
1464.000000	32.237797	0.832370
1465.000000	32.066200	0.832264
1466.000000	31.896299	0.832451
1467.000000	31.726700	0.832790
1468.000000	31.554800	0.833154
1469.000000	31.381899	0.833561
1470.000000	31.214500	0.834101
1471.000000	31.041899	0.834608
1472.000000	30.869299	0.835110
1473.000000	30.698999	0.835527
1474.000000	30.526400	0.835919
1475.000000	30.354099	0.836254
1476.000000	30.186499	0.836503
1477.000000	30.013100	0.836636
1478.000000	29.840900	0.836727
1479.000000	29.667500	0.836699
1480.000000	29.499399	0.836770
1481.000000	29.327799	0.836967
1482.000000	29.157600	0.836986
1483.000000	28.986500	0.837014
1484.000000	28.815599	0.837110
1485.000000	28.643799	0.837325
1486.000000	28.472799	0.837129
1487.000000	28.302599	0.836967
1488.000000	28.134100	0.837034
1489.000000	27.961199	0.837378
1490.000000	27.789000	0.837531
1491.000000	27.619299	0.837832
1492.000000	27.449699	0.838512
1493.000000	27.278700	0.839129
1494.000000	27.103500	0.839492
1495.000000	26.936800	0.839784
1496.000000	26.763000	0.840396
1497.000000	26.592100	0.840913
1498.000000	26.421499	0.841329
1499.000000	26.250000	0.841664
1500.000000	26.077799	0.842176
1501.000000	25.909399	0.842736
1502.000000	25.738699	0.842908
1503.000000	25.567900	0.843070
1504.000000	25.396700	0.843343
1505.000000	25.226599	0.843764
1506.000000	25.054399	0.843975
1507.000000	24.881599	0.844243
1508.000000	24.712900	0.844716
1509.000000	24.539700	0.845391
1510.000000	24.368200	0.845812
1511.000000	24.196899	0.846276
1512.000000	24.025600	0.847194
1513.000000	23.854500	0.847916
1514.000000	23.682499	0.848414
1515.000000	23.510300	0.849270
1516.000000	23.341600	0.850322
1517.000000	23.169399	0.851035
1518.000000	22.996799	0.851887
1519.000000	22.827200	0.853236
1520.000000	22.654800	0.854551
1521.000000	22.483299	0.855613
1522.000000	22.315100	0.856838
1523.000000	22.142900	0.858287
1524.000000	21.972599	0.859459
1525.000000	21.798399	0.860191
1526.000000	21.628000	0.861004
1527.000000	21.458599	0.861985
1528.000000	21.287100	0.862669
1529.000000	21.114500	0.863128
1530.000000	20.945999	0.863798
1531.000000	20.773300	0.864597
1532.000000	20.601099	0.864889
1533.000000	20.428900	0.864989
1534.000000	20.257799	0.865305
1535.000000	20.086201	0.865305
1536.000000	19.912800	0.864913
1537.000000	19.742001	0.864774
1538.000000	19.569500	0.864664
1539.000000	19.398300	0.864138
1540.000000	19.228800	0.863612
1541.000000	19.058599	0.863348
1542.000000	18.886499	0.862913
1543.000000	18.712900	0.862368
1544.000000	18.540199	0.861885
1545.000000	18.372601	0.861808
1546.000000	18.201401	0.861421
1547.000000	18.027800	0.860765
1548.000000	17.858500	0.860378
1549.000000	17.687599	0.860268
1550.000000	17.515800	0.859876
1551.000000	17.344500	0.859364
1552.000000	17.173500	0.859373
1553.000000	17.003201	0.859335
1554.000000	16.831900	0.859129
1555.000000	16.659899	0.859048
1556.000000	16.487400	0.859474
1557.000000	16.316599	0.859746
1558.000000	16.145399	0.860009
1559.000000	15.972700	0.860545
1560.000000	15.799400	0.861134
1561.000000	15.629000	0.861473
1562.000000	15.457600	0.861885
1563.000000	15.285700	0.862392
1564.000000	15.114000	0.862588
1565.000000	14.941000	0.862535
1566.000000	14.772200	0.862717
1567.000000	14.600800	0.862980
1568.000000	14.427200	0.863076
1569.000000	14.256900	0.863267
1570.000000	14.084100	0.863908
1571.000000	13.911700	0.864425
1572.000000	13.738000	0.864492
1573.000000	13.568700	0.864492
1574.000000	13.397900	0.864540
1575.000000	13.226500	0.864415
1576.000000	13.053800	0.864224
1577.000000	12.883900	0.864104
1578.000000	12.712300	0.864339
1579.000000	12.542100	0.864736
1580.000000	12.371200	0.864994
1581.000000	12.196700	0.865118
1582.000000	12.024500	0.865539
1583.000000	11.854500	0.865745
1584.000000	11.684500	0.865893
1585.000000	11.513400	0.866118
1586.000000	11.342500	0.866439
1587.000000	11.171000	0.866797
1588.000000	10.997600	0.867405
1589.000000	10.825500	0.868161
1590.000000	10.654400	0.868802
1591.000000	10.482100	0.869524
1592.000000	10.310000	0.870194
1593.000000	10.137200	0.870586
1594.000000	9.960800	0.870634
1595.000000	9.789600	0.870586
1596.000000	9.618400	0.870572
1597.000000	9.444800	0.870490
1598.000000	9.274100	0.870409
1599.000000	9.102100	0.870179
1600.000000	8.928500	0.869916
1601.000000	8.757800	0.869524
1602.000000	8.588500	0.869175
1603.000000	8.417000	0.868893
1604.000000	8.242300	0.868610
1605.000000	8.070600	0.868457
1606.000000	7.900100	0.868342
1607.000000	7.730800	0.868165
1608.000000	7.560200	0.867955
1609.000000	7.385499	0.867883
1610.000000	7.213099	0.867907
1611.000000	7.042799	0.868084
1612.000000	6.871700	0.868261
1613.000000	6.699900	0.868486
1614.000000	6.527600	0.868969
1615.000000	6.355600	0.869424
1616.000000	6.183599	0.869854
1617.000000	6.013299	0.870318
1618.000000	5.838000	0.870749
1619.000000	5.668200	0.871131
1620.000000	5.495399	0.871571
1621.000000	5.320600	0.871815
1622.000000	5.148600	0.871892
1623.000000	4.976200	0.871882
1624.000000	4.802400	0.871610
1625.000000	4.630900	0.871222
1626.000000	4.458900	0.870935
1627.000000	4.284200	0.870691
1628.000000	4.112200	0.870457
1629.000000	3.940500	0.870347
1630.000000	3.768200	0.870232
1631.000000	3.596400	0.869959
1632.000000	3.425500	0.869438
1633.000000	3.257000	0.868740
1634.000000	3.086500	0.867668
1635.000000	2.917400	0.866348
1636.000000	2.747300	0.865047
1637.000000	2.578500	0.863956
1638.000000	2.406600	0.862889
1639.000000	2.237100	0.862195
1640.000000	2.065200	0.861736
1641.000000	1.895900	0.861511
1642.000000	1.727300	0.861449
1643.000000	1.556000	0.861502
1644.000000	1.384200	0.861569
1645.000000	1.213200	0.861775
1646.000000	1.043300	0.861765
1647.000000	0.875600	0.861645
1648.000000	0.705300	0.861521
1649.000000	0.537200	0.861282
1650.000000	0.366100	0.860827
1651.000000	0.196900	0.860244
1652.000000	0.026800	0.859660
1653.000000	-0.142700	0.858880
1654.000000	-0.308700	0.857881
1655.000000	-0.477000	0.856800
1656.000000	-0.644100	0.855785
1657.000000	-0.811300	0.854589
1658.000000	-0.979500	0.853293
1659.000000	-1.146300	0.851997
1660.000000	-1.311900	0.850676
1661.000000	-1.479900	0.849217
1662.000000	-1.645100	0.847744
1663.000000	-1.808300	0.846218
1664.000000	-1.974400	0.844726
1665.000000	-2.136900	0.843114
1666.000000	-2.300500	0.841449
1667.000000	-2.465200	0.839722
1668.000000	-2.631200	0.838124
1669.000000	-2.793900	0.836464
1670.000000	-2.954800	0.834680
1671.000000	-3.115600	0.832915
1672.000000	-3.277400	0.831097
1673.000000	-3.438700	0.829270
1674.000000	-3.598700	0.827323
1675.000000	-3.759100	0.825519
1676.000000	-3.917200	0.823682
1677.000000	-4.075600	0.821841
1678.000000	-4.233300	0.819879
1679.000000	-4.391700	0.818033
1680.000000	-4.550100	0.816167
1681.000000	-4.709700	0.814129
1682.000000	-4.867100	0.812336
1683.000000	-5.026000	0.810489
1684.000000	-5.185300	0.808418
1685.000000	-5.341200	0.806409
1686.000000	-5.495300	0.804533
1687.000000	-5.652400	0.802366
1688.000000	-5.807700	0.800142
1689.000000	-5.962500	0.798219
1690.000000	-6.115600	0.796286
1691.000000	-6.274100	0.794344
1692.000000	-6.425500	0.792378
1693.000000	-6.578400	0.790594
1694.000000	-6.731200	0.788594
1695.000000	-6.880700	0.786490
1696.000000	-7.032700	0.784375
1697.000000	-7.186200	0.782352
1698.000000	-7.335800	0.780228
1699.000000	-7.485700	0.778171
1700.000000	-7.635700	0.776171
1701.000000	-7.782200	0.774152
1702.000000	-7.929600	0.772139
1703.000000	-8.078899	0.770129
1704.000000	-8.228299	0.768139
1705.000000	-8.377799	0.766140
1706.000000	-8.521899	0.764140
1707.000000	-8.669600	0.762145
1708.000000	-8.814400	0.760127
1709.000000	-8.960400	0.758137
1710.000000	-9.107300	0.756147
1711.000000	-9.249499	0.754162
1712.000000	-9.394400	0.752152
1713.000000	-9.537499	0.750191
1714.000000	-9.680699	0.748196
1715.000000	-9.825299	0.746139
1716.000000	-9.967799	0.744202
1717.000000	-10.112100	0.742226
1718.000000	-10.251399	0.740208
1719.000000	-10.393800	0.738242
1720.000000	-10.536900	0.736252
1721.000000	-10.677799	0.734223
1722.000000	-10.816299	0.732185
1723.000000	-10.955899	0.730234
1724.000000	-11.093800	0.728234
1725.000000	-11.233399	0.726306
1726.000000	-11.374499	0.724340
1727.000000	-11.513299	0.722508
1728.000000	-11.648600	0.720595
1729.000000	-11.786699	0.718619
1730.000000	-11.922899	0.716600
1731.000000	-12.059999	0.714615
1732.000000	-12.195800	0.712716
1733.000000	-12.331900	0.710889
1734.000000	-12.465400	0.709104
1735.000000	-12.598999	0.707224
1736.000000	-12.733399	0.705378
1737.000000	-12.867899	0.703278
1738.000000	-13.000299	0.701264
1739.000000	-13.132599	0.699221
1740.000000	-13.264199	0.697428
1741.000000	-13.395599	0.695519
1742.000000	-13.525999	0.693749
1743.000000	-13.658400	0.691831
1744.000000	-13.787000	0.690013
1745.000000	-13.917399	0.688114
1746.000000	-14.048499	0.686210
1747.000000	-14.177999	0.684287
1748.000000	-14.306600	0.682493
1749.000000	-14.436699	0.680627
1750.000000	-14.567599	0.678766
1751.000000	-14.696300	0.676953
1752.000000	-14.824599	0.675188
1753.000000	-14.950899	0.673256
1754.000000	-15.080799	0.671443
1755.000000	-15.207199	0.669634
1756.000000	-15.332499	0.667850
1757.000000	-15.458899	0.666052
1758.000000	-15.585299	0.664382
1759.000000	-15.710299	0.662684
1760.000000	-15.835100	0.660914
1761.000000	-15.962000	0.659201
1762.000000	-16.085499	0.657465
1763.000000	-16.209499	0.655657
1764.000000	-16.330500	0.653915
1765.000000	-16.453999	0.652188
1766.000000	-16.578499	0.650442
1767.000000	-16.701500	0.648773
1768.000000	-16.823299	0.647070
1769.000000	-16.941898	0.645243
1770.000000	-17.063999	0.643530
1771.000000	-17.184399	0.641789
1772.000000	-17.303999	0.640019
1773.000000	-17.425999	0.638282
1774.000000	-17.545198	0.636637
1775.000000	-17.663599	0.634982
1776.000000	-17.782099	0.633370
1777.000000	-17.901199	0.631681
1778.000000	-18.017099	0.630059
1779.000000	-18.135698	0.628399
1780.000000	-18.253199	0.626768
1781.000000	-18.367599	0.625003
1782.000000	-18.484999	0.623357
1783.000000	-18.603100	0.621635
1784.000000	-18.717800	0.619918
1785.000000	-18.833399	0.618158
1786.000000	-18.948099	0.616287
1787.000000	-19.058100	0.613240
1788.000000	-19.163898	0.607409
1789.000000	-19.251099	0.596057
1790.000000	-19.313000	0.575679
1791.000000	-19.340799	0.542973
1792.000000	-19.332899	0.495237
1793.000000	-19.294199	0.431490
1794.000000	-19.224699	0.353005
1795.000000	-19.131300	0.262747
1796.000000	-19.020599	0.164620
1797.000000	-18.891100	0.063474
1798.000000	-18.751900	-0.036514
1799.000000	-18.604300111	-0.131919
1800.000000	-18.450199	-0.220325
1801.000000	-18.290298	-0.300203
1802.000000	-18.127399	-0.371029
1803.000000	-17.960699	-0.432538
1804.000000	-17.790600	-0.485440
1805.000000	-17.622099	-0.530368
1806.000000	-17.449999	-0.568317
1807.000000	-17.278999	-0.600080
1808.000000	-17.106800	-0.626720
1809.000000	-16.934700	-0.648916
1810.000000	-16.760500	-0.667381
1811.000000	-16.584999	-0.682613
1812.000000	-16.410900	-0.695390
1813.000000	-16.236198	-0.706052
1814.000000	-16.064098	-0.714854
1815.000000	-15.889000	-0.722264
1816.000000	-15.712700	-0.728588
1817.000000	-15.536699	-0.733946
1818.000000	-15.361000	-0.738471
1819.000000	-15.184299	-0.742327
1820.000000	-15.012699	-0.745656
1821.000000	-14.834899	-0.748416
1822.000000	-14.658199	-0.750631
1823.000000	-14.485000	-0.752430
1824.000000	-14.311299	-0.754056
1825.000000	-14.137899	-0.755338
1826.000000	-13.967299	-0.756472
1827.000000	-13.792199	-0.757424
1828.000000	-13.616899	-0.758347
1829.000000	-13.446199	-0.759113
1830.000000	-13.272599	-0.759758
1831.000000	-13.100499	-0.760395
1832.000000	-12.924600	-0.761021
1833.000000	-12.750899	-0.761634
1834.000000	-12.577100	-0.762107
1835.000000	-12.402800	-0.762643
1836.000000	-12.231500	-0.763164
1837.000000	-12.058000	-0.763628
1838.000000	-11.883900	-0.763944
1839.000000	-11.710899	-0.764346
1840.000000	-11.539200	-0.764609
1841.000000	-11.366899	-0.764762
1842.000000	-11.192800	-0.764853
1843.000000	-11.018100	-0.765006
1844.000000	-10.843300	-0.765073
1845.000000	-10.672199	-0.765336
1846.000000	-10.498899	-0.765585
1847.000000	-10.326300	-0.765896
1848.000000	-10.150999	-0.766240
1849.000000	-9.978399	-0.766637
1850.000000	-9.806899	-0.766991
1851.000000	-9.632400	-0.767355
1852.000000	-9.458500	-0.767647
1853.000000	-9.287000	-0.768025
1854.000000	-9.113600	-0.768379
1855.000000	-8.941199	-0.768771
1856.000000	-8.769899	-0.769134
1857.000000	-8.597199	-0.769618
1858.000000	-8.424500	-0.769890
1859.000000	-8.252899	-0.770225
1860.000000	-8.079599	-0.770546
1861.000000	-7.906600	-0.770871
1862.000000	-7.732200	-0.771053
1863.000000	-7.561000	-0.771282
1864.000000	-7.391800	-0.771388
1865.000000	-7.218300	-0.771292
1866.000000	-7.048600	-0.771201
1867.000000	-6.872400	-0.771158
1868.000000	-6.702800	-0.771062
1869.000000	-6.531300	-0.771072
1870.000000	-6.360000	-0.771038
1871.000000	-6.188400	-0.771057
1872.000000	-6.017600	-0.771230
1873.000000	-5.842500	-0.771502
1874.000000	-5.666300	-0.771871
1875.000000	-5.496900	-0.772440
1876.000000	-5.322000	-0.773110
1877.000000	-5.148700	-0.773775
1878.000000	-4.976200	-0.774530
1879.000000	-4.802100	-0.775214
1880.000000	-4.629500	-0.776052
1881.000000	-4.455600	-0.776702
1882.000000	-4.282600	-0.777324
1883.000000	-4.110900	-0.777793
1884.000000	-3.937800	-0.778175
1885.000000	-3.763300	-0.778314
1886.000000	-3.595300	-0.778415
1887.000000	-3.423800	-0.778348
1888.000000	-3.253000	-0.778142
1889.000000	-3.080100	-0.778051
1890.000000	-2.906900	-0.777841
1891.000000	-2.735300	-0.777554
1892.000000	-2.563400	-0.777324
1893.000000	-2.389900	-0.777003
1894.000000	-2.219900	-0.776587
1895.000000	-2.048000	-0.776195
1896.000000	-1.873300	-0.775635
1897.000000	-1.699500	-0.774937
1898.000000	-1.527900	-0.774143
1899.000000	-1.356000	-0.773181
1900.000000	-1.185000	-0.771971
1901.000000	-1.014100	-0.770723
1902.000000	-0.839800	-0.769087
1903.000000	-0.665400	-0.767436
1904.000000	-0.494300	-0.765480
1905.000000	-0.322700	-0.763404
1906.000000	-0.150200	-0.761117
1907.000000	0.022600	-0.758754
1908.000000	0.194700	-0.756104
1909.000000	0.366900	-0.753305
1910.000000	0.540400	-0.750349
1911.000000	0.712200	-0.747431
1912.000000	0.882800	-0.744652
1913.000000	1.056000	-0.742159
1914.000000	1.228700	-0.739988
1915.000000	1.399200	-0.738376
1916.000000	1.570900	-0.737366
1917.000000	1.745500	-0.737108
1918.000000	1.915300	-0.737538
1919.000000	2.088500	-0.738835
1920.000000	2.257500	-0.740748
1921.000000	2.429600	-0.743107
1922.000000	2.600500	-0.745881
1923.000000	2.773500	-0.748809
1924.000000	2.944200	-0.751798
1925.000000	3.115200	-0.754922
1926.000000	3.285400	-0.758070
1927.000000	3.458700	-0.761021
1928.000000	3.628600	-0.763896
1929.000000	3.803100	-0.766523
1930.000000	3.971600	-0.768728
1931.000000	4.146200	-0.770823
1932.000000	4.318200	-0.772607
1933.000000	4.490600	-0.774210
1934.000000	4.662800	-0.775674
1935.000000	4.832200	-0.777195
1936.000000	5.004600	-0.778439
1937.000000	5.177299	-0.779611
1938.000000	5.350300	-0.780802
1939.000000	5.524600	-0.782088
1940.000000	5.696000	-0.783179
1941.000000	5.866300	-0.784318
1942.000000	6.036900	-0.785346
1943.000000	6.210600	-0.786222
1944.000000	6.379100	-0.786963
1945.000000	6.551300	-0.787642
1946.000000	6.722300	-0.788082
1947.000000	6.893500	-0.788561
1948.000000	7.066200	-0.788982
1949.000000	7.236000	-0.789398
1950.000000	7.410200	-0.789843
1951.000000	7.579200	-0.790326
1952.000000	7.750900	-0.790819
1953.000000	7.922900	-0.791331
1954.000000	8.093300	-0.791694
1955.000000	8.264600	-0.792129
1956.000000	8.435200	-0.792565
1957.000000	8.608600	-0.793048
1958.000000	8.779100	-0.793545
1959.000000	8.952200	-0.794172
1960.000000	9.124200	-0.794823
1961.000000	9.295900	-0.795617
1962.000000	9.469900	-0.796320
1963.000000	9.640800	-0.796975
1964.000000	9.811600	-0.797530
1965.000000	9.981200	-0.798056
1966.000000	10.156000	-0.798453
1967.000000	10.328300	-0.798917
1968.000000	10.499600	-0.799367
1969.000000	10.670700	-0.799975
1970.000000	10.840900	-0.800420
1971.000000	11.010700	-0.800783
1972.000000	11.183400	-0.801175
1973.000000	11.357300	-0.801596
1974.000000	11.525300	-0.801749
1975.000000	11.697800	-0.802084
1976.000000	11.867900	-0.802510
1977.000000	12.037800	-0.802864
1978.000000	12.209400	-0.803256
1979.000000	12.381900	-0.803763
1980.000000	12.553700	-0.804289
1981.000000	12.724700	-0.804825
1982.000000	12.895100	-0.805356
1983.000000	13.067000	-0.805830
1984.000000	13.238400	-0.806514
1985.000000	13.409400	-0.807069
1986.000000	13.582200	-0.807671
1987.000000	13.753300	-0.808203
1988.000000	13.923300	-0.808867
1989.000000	14.095700	-0.809370
1990.000000	14.266400	-0.809872
1991.000000	14.440900	-0.810365
1992.000000	14.611000	-0.811030
1993.000000	14.782700	-0.811532
1994.000000	14.951300	-0.812077
1995.000000	15.125900	-0.812608
1996.000000	15.298100	-0.813292
1997.000000	15.469700	-0.813732
1998.000000	15.642600	-0.814201
1999.000000	15.813400	-0.814579
2000.000000	15.983400	-0.814952
2001.000000	16.157700	-0.815273
2002.000000	16.329599	-0.815622
2003.000000	16.498899	-0.816052
2004.000000	16.671099	-0.816507
2005.000000	16.837700	-0.817067
2006.000000	17.012300	-0.817497
2007.000000	17.183399	-0.817985
2008.000000	17.355101	-0.818396
2009.000000	17.525999	-0.818798
2010.000000	17.695801	-0.819066
2011.000000	17.867300	-0.819334
2012.000000	18.037199	-0.819482
2013.000000	18.208599	-0.819525
2014.000000	18.379900	-0.819559
2015.000000	18.550600	-0.819592
2016.000000	18.723101	-0.819674
2017.000000	18.893801	-0.819965
2018.000000	19.064699	-0.820315
2019.000000	19.234699	-0.820683
2020.000000	19.405500	-0.821104
2021.000000	19.577101	-0.821477
2022.000000	19.748800	-0.821802
2023.000000	19.918301	-0.822180
2024.000000	20.091400	-0.822663
2025.000000	20.263100	-0.823180
2026.000000	20.435299	-0.823797
2027.000000	20.604000	-0.824476
2028.000000	20.776300	-0.825146
2029.000000	20.946199	-0.825768
2030.000000	21.117701	-0.826443
2031.000000	21.290600	-0.826930
2032.000000	21.462601	-0.827461
2033.000000	21.634399	-0.827839
2034.000000	21.803400	-0.828203
2035.000000	21.974300	-0.828480
2036.000000	22.143999	-0.828868
2037.000000	22.317200	-0.829050
2038.000000	22.488699	-0.829418
2039.000000	22.659201	-0.829743
2040.000000	22.827799	-0.830078
2041.000000	23.000000	-0.830351
2042.000000	23.170599	-0.830848
2043.000000	23.342100	-0.831178
2044.000000	23.514799	-0.831451
2045.000000	23.684200	-0.831719
2046.000000	23.854300	-0.832125
2047.000000	24.027199	-0.832360
2048.000000	24.199400	-0.832747
2049.000000	24.369900	-0.833116
2050.000000	24.540199	-0.833513
2051.000000	24.712700	-0.833805
2052.000000	24.881199	-0.834144
2053.000000	25.055300	-0.834589
2054.000000	25.226400	-0.835034
2055.000000	25.399300	-0.835565
2056.000000	25.571100	-0.836082
2057.000000	25.739901	-0.836555
2058.000000	25.910299	-0.836933
2059.000000	26.081699	-0.837359
2060.000000	26.251400	-0.837593
2061.000000	26.424799	-0.837856
2062.000000	26.594200	-0.838110
2063.000000	26.763500	-0.838239
2064.000000	26.933399	-0.838363
2065.000000	27.105499	-0.838493
2066.000000	27.276100	-0.838560
2067.000000	27.445000	-0.838588
2068.000000	27.616899	-0.838770
2069.000000	27.785500	-0.838842
2070.000000	27.956999	-0.839038
2071.000000	28.127501	-0.839411
2072.000000	28.299999	-0.839880
2073.000000	28.470800	-0.840229
2074.000000	28.640499	-0.840698
2075.000000	28.811399	-0.841071
2076.000000	28.979599	-0.841272
2077.000000	29.152700	-0.841468
2078.000000	29.320499	-0.841798
2079.000000	29.491400	-0.842181
2080.000000	29.659899	-0.842621
2081.000000	29.831600	-0.843128
2082.000000	30.004999	-0.843750
2083.000000	30.176100	-0.844219
2084.000000	30.344500	-0.844721
2085.000000	30.519499	-0.845333
2086.000000	30.690800	-0.845950
2087.000000	30.858099	-0.846448
2088.000000	31.030399	-0.847084
2089.000000	31.202200	-0.847706
2090.000000	31.371899	-0.848347
2091.000000	31.542500	-0.848983
2092.000000	31.712500	-0.849586
2093.000000	31.881100	-0.850184
2094.000000	32.053799	-0.850767
2095.000000	32.223797	-0.851188
2096.000000	32.394299	-0.851571
2097.000000	32.564198	-0.851973
2098.000000	32.735298	-0.852236
2099.000000	32.904099	-0.852446
2100.000000	33.076298	-0.852571
2101.000000	33.244301	-0.852686
2102.000000	33.414200	-0.852853
2103.000000	33.585098	-0.852977
2104.000000	33.754101	-0.853054
2105.000000	33.923199	-0.853245
2106.000000	34.094101	-0.853446
2107.000000	34.265499	-0.853719
2108.000000	34.437401	-0.854125
2109.000000	34.608200	-0.854680
2110.000000	34.775898	-0.855364
2111.000000	34.949200	-0.856154
2112.000000	35.119801	-0.856910
2113.000000	35.291401	-0.857584
2114.000000	35.461098	-0.858326
2115.000000	35.633198	-0.859120
2116.000000	35.801399	-0.859899
2117.000000	35.972000	-0.860579
2118.000000	36.144199	-0.861258
2119.000000	36.314301	-0.861789
2120.000000	36.483299	-0.862277
2121.000000	36.652699	-0.862832
2122.000000	36.823101	-0.863468
2123.000000	36.994900	-0.864214
2124.000000	37.163998	-0.864932
2125.000000	37.335701	-0.865520
2126.000000	37.508698	-0.866056
2127.000000	37.677101	-0.866611
2128.000000	37.847801	-0.866970
2129.000000	38.019699	-0.867481
2130.000000	38.189999	-0.868032
2131.000000	38.361900	-0.868419
2132.000000	38.531300	-0.868711
2133.000000	38.701500	-0.869247
2134.000000	38.869801	-0.869620
2135.000000	39.041901	-0.869912
2136.000000	39.210899	-0.870203
2137.000000	39.380299	-0.870428
2138.000000	39.550701	-0.870677
2139.000000	39.722500	-0.870926
2140.000000	39.892799	-0.871265
2141.000000	40.064301	-0.871686
2142.000000	40.233898	-0.872198
2143.000000	40.404301	-0.872638
2144.000000	40.575397	-0.873102
2145.000000	40.743999	-0.873518
2146.000000	40.916000	-0.873973
2147.000000	41.086098	-0.874375
2148.000000	41.257500	-0.874863
2149.000000	41.426998	-0.875413
2150.000000	41.598099	-0.875819
2151.000000	41.765499	-0.876346
2152.000000	41.939899	-0.877149
2153.000000	42.109299	-0.877919
2154.000000	42.278999	-0.878728
2155.000000	42.451900	-0.879742
2156.000000	42.621700	-0.880670
2157.000000	42.790897	-0.881321
2158.000000	42.961300	-0.882019
2159.000000	43.132099	-0.882727
2160.000000	43.303299	-0.883325
2161.000000	43.474098	-0.883770
2162.000000	43.643200	-0.884191
2163.000000	43.813698	-0.884449
2164.000000	43.984398	-0.884602
2165.000000	44.153801	-0.884660
2166.000000	44.323799	-0.884765
2167.000000	44.493500	-0.884942
2168.000000	44.662701	-0.885138
2169.000000	44.834400	-0.885358
2170.000000	45.003799	-0.885812
2171.000000	45.174400	-0.886324
2172.000000	45.341801	-0.886846
2173.000000	45.512398	-0.887477
2174.000000	45.685497	-0.888324
2175.000000	45.853798	-0.889209
2176.000000	46.024200	-0.890118
2177.000000	46.193901	-0.891141
2178.000000	46.365700	-0.892256
2179.000000	46.534500	-0.893232
2180.000000	46.702198	-0.894246
2181.000000	46.871998	-0.895107
2182.000000	47.042599	-0.895954
2183.000000	47.211300	-0.896537
2184.000000	47.381100	-0.897035
2185.000000	47.550499	-0.897389
2186.000000	47.719700	-0.897929
2187.000000	47.889099	-0.898542
2188.000000	48.059898	-0.899341
2189.000000	48.229500	-0.900340
2190.000000	48.398499	-0.901321
2191.000000	48.567699	-0.902393
2192.000000	48.737999	-0.903488
2193.000000	48.909401	-0.904708
2194.000000	49.080799	-0.906057
2195.000000	49.251598	-0.907521
2196.000000	49.422501	-0.909171
2197.000000	49.591599	-0.910974
2198.000000	49.762100	-0.912845
2199.000000	49.934200	-0.914849
2200.000000	50.104298	-0.917184
2201.000000	50.273300	-0.919642
2202.000000	50.441898	-0.922211
2203.000000	50.611198	-0.924900
2204.000000	50.779800	-0.927732
2205.000000	50.952698	-0.930760
2206.000000	51.120499	-0.933993
2207.000000	51.287498	-0.937414
2208.000000	51.456600	-0.941154
2209.000000	51.624599	-0.945101
2210.000000	51.798698	-0.949148
2211.000000	51.967598	-0.953396
2212.000000	52.137897	-0.957759
2213.000000	52.306599	-0.962102
2214.000000	52.476498	-0.966403
2215.000000	52.643101	-0.970540
2216.000000	52.813900	-0.974396
2217.000000	52.983601	-0.978099
2218.000000	53.152599	-0.981801
2219.000000	53.323399	-0.985274
2220.000000	53.491898	-0.988814
2221.000000	53.661400	-0.992167
2222.000000	53.830898	-0.995454
2223.000000	53.999001	-0.998381
2224.000000	54.169998	-1.001184
2225.000000	54.342598	-1.003715
2226.000000	54.510201	-1.005978
2227.000000	54.678497	-1.007963
2228.000000	54.848999	-1.009580
2229.000000	55.016800	-1.010800
2230.000000	55.185497	-1.011383
2231.000000	55.355598	-1.011603
2232.000000	55.523499	-1.011091
2233.000000	55.694599	-1.010221
2234.000000	55.864799	-1.008728
2235.000000	56.035000	-1.006867
2236.000000	56.204201	-1.004476
2237.000000	56.374001	-1.001730
2238.000000	56.545799	-0.998601
2239.000000	56.716900	-0.995157
2240.000000	56.888397	-0.991450
2241.000000	57.058197	-0.987431
2242.000000	57.228199	-0.983509
2243.000000	57.397900	-0.979433
2244.000000	57.568501	-0.975472
2245.000000	57.737698	-0.971287
2246.000000	57.908798	-0.967307
2247.000000	58.076900	-0.963198
2248.000000	58.246098	-0.959208
2249.000000	58.415798	-0.955290
2250.000000	58.585499	-0.951664
2251.000000	58.755398	-0.948268
2252.000000	58.925400	-0.945110
2253.000000	59.093300	-0.942106
2254.000000	59.263298	-0.939188
2255.000000	59.433899	-0.936486
2256.000000	59.603298	-0.934032
2257.000000	59.773998	-0.931692
2258.000000	59.942997	-0.929444
2259.000000	60.112801	-0.927478
2260.000000	60.281200	-0.925660
2261.000000	60.452698	-0.923981
2262.000000	60.621597	-0.922570
2263.000000	60.792999	-0.921570
2264.000000	60.961998	-0.920829
2265.000000	61.130199	-0.920542
2266.000000	61.299000	-0.920250
2267.000000	61.470100	-0.920135
2268.000000	61.636898	-0.919992
2269.000000	61.807400	-0.919891
2270.000000	61.976700	-0.919824
2271.000000	62.143398	-0.919925
2272.000000	62.315197	-0.920054
2273.000000	62.483398	-0.920346
2274.000000	62.653797	-0.920719
2275.000000	62.823700	-0.920948
2276.000000	62.993000	-0.921360
2277.000000	63.163799	-0.921704
2278.000000	63.330997	-0.921934
2279.000000	63.499897	-0.922235
2280.000000	63.671997	-0.922498
2281.000000	63.839397	-0.922709
2282.000000	64.009399	-0.922900
2283.000000	64.178200	-0.923206
2284.000000	64.347099	-0.923469
2285.000000	64.515495	-0.923795
2286.000000	64.686302	-0.923957
2287.000000	64.855995	-0.924268
2288.000000	65.022202	-0.924483
2289.000000	65.193199	-0.924799
2290.000000	65.362099	-0.925120
2291.000000	65.533401	-0.925278
2292.000000	65.697502	-0.925325
2293.000000	65.868401	-0.925445
2294.000000	66.037300	-0.925388
2295.000000	66.205399	-0.925163
2296.000000	66.374496	-0.925167
2297.000000	66.543701	-0.925038
2298.000000	66.714798	-0.924766
2299.000000	66.884102	-0.924459
2300.000000	67.054298	-0.924431
2301.000000	67.221695	-0.924431
2302.000000	67.390602	-0.924723
2303.000000	67.559502	-0.925177
2304.000000	67.729797	-0.925727
2305.000000	67.900101	-0.926191
2306.000000	68.068398	-0.926737
2307.000000	68.238197	-0.927110
2308.000000	68.407097	-0.927488
2309.000000	68.572899	-0.927889
2310.000000	68.742699	-0.928195
2311.000000	68.911995	-0.928315
2312.000000	69.080200	-0.928468
2313.000000	69.247902	-0.928444
2314.000000	69.416801	-0.928315
2315.000000	69.584602	-0.928119
2316.000000	69.753502	-0.928062
2317.000000	69.921295	-0.928167
2318.000000	70.091599	-0.928425
2319.000000	70.258896	-0.928837
2320.000000	70.427696	-0.929482
2321.000000	70.597801	-0.930229
2322.000000	70.767799	-0.930965
2323.000000	70.935898	-0.931649
2324.000000	71.104897	-0.932295
2325.000000	71.272301	-0.933032
2326.000000	71.440598	-0.933678
2327.000000	71.608002	-0.934213
2328.000000	71.777000	-0.934926
2329.000000	71.946495	-0.935672
2330.000000	72.114998	-0.936409
2331.000000	72.281601	-0.937131
2332.000000	72.449196	-0.937911
2333.000000	72.619995	-0.938504
2334.000000	72.789398	-0.939102
2335.000000	72.958397	-0.939820
2336.000000	73.126396	-0.940566
2337.000000	73.295601	-0.941312
2338.000000	73.467102	-0.942192
2339.000000	73.635300	-0.942877
2340.000000	73.803902	-0.943317
2341.000000	73.973495	-0.943867
2342.000000	74.142502	-0.944321
2343.000000	74.311897	-0.944795
2344.000000	74.481697	-0.945287
2345.000000	74.649002	-0.945799
2346.000000	74.818802	-0.946067
2347.000000	74.987198	-0.946297
2348.000000	75.153397	-0.946493
2349.000000	75.322395	-0.946775
2350.000000	75.491699	-0.947057
2351.000000	75.660995	-0.947359
2352.000000	75.829498	-0.947694
2353.000000	75.997299	-0.947923
2354.000000	76.167099	-0.948038
2355.000000	76.334099	-0.948215
2356.000000	76.167099	-0.948038
2357.000000	76.503799	-0.948459
2358.000000	76.673096	-0.948727
2359.000000	76.839996	-0.949019
2360.000000	77.006798	-0.949306
2361.000000	77.174797	-0.949502
2362.000000	77.344200	-0.949564
2363.000000	77.513901	-0.949717
2364.000000	77.680901	-0.949712
2365.000000	77.847298	-0.949789
2366.000000	78.016098	-0.950109
2367.000000	78.183899	-0.950588
2368.000000	78.351601	-0.951109
2369.000000	78.520096	-0.951922
2370.000000	78.688698	-0.952760
2371.000000	78.857300	-0.953477
2372.000000	79.024498	-0.954166
2373.000000	79.193802	-0.954793
2374.000000	79.363396	-0.955218
2375.000000	79.532402	-0.955558
2376.000000	79.700897	-0.955797
2377.000000	79.867096	-0.955926
2378.000000	80.035400	-0.955912
2379.000000	80.201996	-0.955984
2380.000000	80.369499	-0.956166
2381.000000	80.539497	-0.956467
2382.000000	80.705696	-0.956735
2383.000000	80.876495	-0.957127
2384.000000	81.046295	-0.957648
2385.000000	81.213402	-0.958141
2386.000000	81.383698	-0.958433
2387.000000	81.554298	-0.958782
2388.000000	81.720200	-0.959012
2389.000000	81.889000	-0.959136
2390.000000	82.057098	-0.959179
2391.000000	82.226395	-0.959289
2392.000000	82.394997	-0.959347
2393.000000	82.563400	-0.959524
2394.000000	82.730598	-0.959600
2395.000000	82.898697	-0.959591
2396.000000	83.066101	-0.959567
2397.000000	83.233498	-0.959500
2398.000000	83.400497	-0.959404
2399.000000	83.567795	-0.959423
2400.000000	83.736702	-0.959653
2401.000000	83.905800	-0.959997
2402.000000	84.073601	-0.960610
2403.000000	84.240601	-0.961145
2404.000000	84.409996	-0.961619
2405.000000	84.579102	-0.962131
2406.000000	84.745995	-0.962566
2407.000000	84.914696	-0.962891
2408.000000	85.083099	-0.963260
2409.000000	85.250099	-0.963752
2410.000000	85.418297	-0.964063
2411.000000	85.586296	-0.964480
2412.000000	85.755997	-0.965120
2413.000000	85.919998	-0.965805
2414.000000	86.089500	-0.966517
2415.000000	86.258499	-0.967374
2416.000000	86.425400	-0.968225
2417.000000	86.594696	-0.968866
2418.000000	86.762497	-0.969584
2419.000000	86.929001	-0.970292
2420.000000	87.095299	-0.970885
2421.000000	87.263100	-0.971392
2422.000000	87.430595	-0.971961
2423.000000	87.599495	-0.972487
2424.000000	87.766800	-0.972841
2425.000000	87.935600	-0.973320
2426.000000	88.104195	-0.973817
2427.000000	88.270699	-0.974353
2428.000000	88.438995	-0.974903
2429.000000	88.605598	-0.975558
2430.000000	88.774796	-0.976113
2431.000000	88.940697	-0.976850
2432.000000	89.108200	-0.977496
2433.000000	89.277596	-0.978170
2434.000000	89.446297	-0.978730
2435.000000	89.614098	-0.979381
2436.000000	89.780602	-0.979902
2437.000000	89.950699	-0.980481
2438.000000	90.116501	-0.980864
2439.000000	90.284897	-0.981332
2440.000000	90.453796	-0.981897
2441.000000	90.619995	-0.982385
2442.000000	90.788597	-0.982696
2443.000000	90.957100	-0.983131
2444.000000	91.123695	-0.983576
2445.000000	91.293701	-0.983925
2446.000000	91.462700	-0.984317
2447.000000	91.630997	-0.984695
2448.000000	91.798698	-0.985035
2449.000000	91.966095	-0.985379
2450.000000	92.132095	-0.985561
2451.000000	92.303596	-0.985729
2452.000000	92.469894	-0.986049
2453.000000	92.638397	-0.986417
2454.000000	92.805496	-0.986594
2455.000000	92.971901	-0.986920
2456.000000	93.141495	-0.987135
2457.000000	93.308998	-0.987317
2458.000000	93.475494	-0.987455
2459.000000	93.643600	-0.987594
2460.000000	93.812996	-0.987742
2461.000000	93.979996	-0.987967
2462.000000	94.146599	-0.988254
2463.000000	94.313896	-0.988498
2464.000000	94.480698	-0.988895
2465.000000	94.647202	-0.989273
2466.000000	94.812698	-0.989632
2467.000000	94.982498	-0.990019
2468.000000	95.151794	-0.990507
2469.000000	95.317795	-0.991010
2470.000000	95.487198	-0.991636
2471.000000	95.654198	-0.992258
2472.000000	95.823700	-0.992894
2473.000000	95.988495	-0.993502
2474.000000	96.156998	-0.994200
2475.000000	96.324600	-0.994889
2476.000000	96.492500	-0.995549
2477.000000	96.659096	-0.996119
2478.000000	96.826897	-0.996650
2479.000000	96.992599	-0.997147
2480.000000	97.159897	-0.997511
2481.000000	97.328300	-0.997860
2482.000000	97.497101	-0.998147
2483.000000	97.663597	-0.998443
2484.000000	97.829201	-0.998740
2485.000000	97.996201	-0.999099
2486.000000	98.164894	-0.999582
2487.000000	98.332100	-1.000070
2488.000000	98.500397	-1.000668
2489.000000	98.666801	-1.001079
2490.000000	98.837502	-1.001515
2491.000000	99.003601	-1.002074
2492.000000	99.173294	-1.002706
2493.000000	99.340401	-1.003227
2494.000000	99.506996	-1.004050
2495.000000	99.673195	-1.004825
2496.000000	99.841095	-1.005389
2497.000000	100.008095	-1.006045
2498.000000	100.176201	-1.006643
2499.000000	100.343201	-1.007121
2500.000000	100.510597	-1.007504
2501.000000	100.674500	-1.007771
2502.000000	100.841301	-1.007886
2503.000000	101.009895	-1.007972
2504.000000	101.176399	-1.008092
2505.000000	101.344200	-1.008231
2506.000000	101.509995	-1.008417
2507.000000	101.676201	-1.008733
2508.000000	101.842896	-1.009130
2509.000000	102.009598	-1.009522
2510.000000	102.180000	-1.009891
2511.000000	102.343498	-1.010283
2512.000000	102.509201	-1.010618
2513.000000	102.676399	-1.011020
2514.000000	102.843201	-1.011331
2515.000000	103.009094	-1.011909
2516.000000	103.175697	-1.012579
2517.000000	103.342796	-1.013397
2518.000000	103.511597	-1.014201
2519.000000	103.678696	-1.015138
2520.000000	103.847496	-1.015999
2521.000000	104.014694	-1.016904
2522.000000	104.180298	-1.017626
2523.000000	104.349098	-1.018492
2524.000000	104.516296	-1.019372
2525.000000	104.681496	-1.020195
2526.000000	104.851395	-1.020989
2527.000000	105.019096	-1.021835
2528.000000	105.184700	-1.022472
2529.000000	105.350998	-1.023118
2530.000000	105.519394	-1.023605
2531.000000	105.684898	-1.024065
2532.000000	105.851700	-1.024629
2533.000000	106.021896	-1.025146
2534.000000	106.190201	-1.025595
2535.000000	106.357201	-1.026127
2536.000000	106.523895	-1.026643
2537.000000	106.690498	-1.026839
2538.000000	106.858299	-1.027078
2539.000000	107.024498	-1.027141
2540.000000	107.193794	-1.027179
2541.000000	107.360298	-1.027179
2542.000000	107.525795	-1.027351
2543.000000	107.691696	-1.027643
2544.000000	107.859100	-1.027935
2545.000000	108.026794	-1.028159
2546.000000	108.192398	-1.028456
2547.000000	108.358795	-1.028724
2548.000000	108.525200	-1.029040
2549.000000	108.690498	-1.029518
2550.000000	108.858200	-1.030264
2551.000000	109.023796	-1.031058
2552.000000	109.192596	-1.031900
2553.000000	109.360596	-1.032728
2554.000000	109.525597	-1.033503
2555.000000	109.692795	-1.034216
2556.000000	109.860901	-1.034876
2557.000000	110.027596	-1.035550
2558.000000	110.193398	-1.036115
2559.000000	110.358398	-1.036904
2560.000000	110.524994	-1.037516
2561.000000	110.690994	-1.038153
2562.000000	110.856094	-1.038865
2563.000000	111.022301	-1.039770
2564.000000	111.189499	-1.040463
2565.000000	111.356697	-1.041372
2566.000000	111.523895	-1.042319
2567.000000	111.689301	-1.043252
2568.000000	111.856499	-1.044051
2569.000000	112.024399	-1.045027
2570.000000	112.188095	-1.045878
2571.000000	112.356400	-1.046634
2572.000000	112.520798	-1.047347
2573.000000	112.690498	-1.048251
2574.000000	112.856895	-1.048983
2575.000000	113.022797	-1.049643
2576.000000	113.187897	-1.050394
2577.000000	113.356094	-1.051126
2578.000000	113.521500	-1.051848
2579.000000	113.687798	-1.052700
2580.000000	113.853600	-1.053690
2581.000000	114.020294	-1.054723
2582.000000	114.186501	-1.055900
2583.000000	114.352798	-1.057029
2584.000000	114.517395	-1.058148
2585.000000	114.685799	-1.059430
2586.000000	114.851898	-1.060789
2587.000000	115.018097	-1.062080
2588.000000	115.185699	-1.063367
2589.000000	115.351395	-1.064644
2590.000000	115.517899	-1.065926
2591.000000	115.684494	-1.067050
2592.000000	115.851196	-1.068098
2593.000000	116.018295	-1.069017
2594.000000	116.183899	-1.069701
2595.000000	116.351395	-1.070126
2596.000000	116.518295	-1.070566
2597.000000	116.683495	-1.071045
2598.000000	116.851700	-1.071686
2599.000000	117.017700	-1.072647
2600.000000	117.184898	-1.073848
2601.000000	117.349297	-1.074987
2602.000000	117.513695	-1.076139
2603.000000	117.681000	-1.077355
2604.000000	117.848000	-1.078646
2605.000000	118.013298	-1.079828
2606.000000	118.180794	-1.081258
2607.000000	118.344894	-1.082770
2608.000000	118.509995	-1.084276
2609.000000	118.679001	-1.085745
2610.000000	118.841995	-1.087319
2611.000000	119.008598	-1.088802
2612.000000	119.174400	-1.090179
2613.000000	119.338196	-1.091452
2614.000000	119.506699	-1.092753
2615.000000	119.671799	-1.094150
2616.000000	119.837097	-1.095700
2617.000000	120.003899	-1.097518
2618.000000	120.169594	-1.099603
2619.000000	120.332497	-1.101703
2620.000000	120.500694	-1.103904
2621.000000	120.665596	-1.106128
2622.000000	120.831497	-1.108434
2623.000000	120.997200	-1.110625
2624.000000	121.162399	-1.112830
2625.000000	121.327995	-1.114854
2626.000000	121.495895	-1.116977
2627.000000	121.662094	-1.119116
2628.000000	121.826996	-1.121225
2629.000000	121.992897	-1.123445
2630.000000	122.158699	-1.125923
2631.000000	122.323700	-1.128396
2632.000000	122.491501	-1.130865
2633.000000	122.657394	-1.133476
2634.000000	122.824097	-1.136260
2635.000000	122.987900	-1.139078
2636.000000	123.151695	-1.141996
2637.000000	123.318794	-1.144962
2638.000000	123.484299	-1.148090
2639.000000	123.652596	-1.151176
2640.000000	123.817398	-1.154467
2641.000000	123.982094	-1.157667
2642.000000	124.145096	-1.161040
2643.000000	124.310799	-1.164618
2644.000000	124.475700	-1.168387
2645.000000	124.639397	-1.172291
2646.000000	124.805298	-1.176673
2647.000000	124.973297	-1.181413
2648.000000	125.134995	-1.186331
2649.000000	125.302498	-1.191507
2650.000000	125.469299	-1.196831
2651.000000	125.633095	-1.202251
2652.000000	125.798195	-1.207824
2653.000000	125.963699	-1.213550
2654.000000	126.129295	-1.219482
2655.000000	126.293396	-1.225375
2656.000000	126.456596	-1.231383
2657.000000	126.623100	-1.237660
2658.000000	126.788597	-1.244165
2659.000000	126.950195	-1.250829
2660.000000	127.114594	-1.258133
2661.000000	127.281998	-1.265931
2662.000000	127.445297	-1.274006
2663.000000	127.610794	-1.282564
2664.000000	127.775894	-1.291619
2665.000000	127.940697	-1.300789
2666.000000	128.102997	-1.310165
2667.000000	128.267700	-1.319790
2668.000000	128.433990	-1.329558
2669.000000	128.595490	-1.339738
2670.000000	128.762192	-1.350424
2671.000000	128.926895	-1.361427
2672.000000	129.088989	-1.372922
2673.000000	129.254791	-1.384828
2674.000000	129.419388	-1.396888
2675.000000	129.582489	-1.408957
2676.000000	129.746994	-1.421170
2677.000000	129.910187	-1.433153
2678.000000	130.073288	-1.444768
2679.000000	130.241882	-1.455961
2680.000000	130.406189	-1.466557
2681.000000	130.570389	-1.476158
2682.000000	130.735596	-1.484611
2683.000000	130.899384	-1.491686
2684.000000	131.066788	-1.496685
2685.000000	131.231796	-1.499282
2686.000000	131.396896	-1.499019
2687.000000	131.562286	-1.495489
2688.000000	131.729385	-1.488184
2689.000000	131.892990	-1.477134
2690.000000	132.060394	-1.461922
2691.000000	132.229492	-1.442797
2692.000000	132.395096	-1.419864
2693.000000	132.563782	-1.394061
2694.000000	132.730789	-1.366043
2695.000000	132.898087	-1.337159
2696.000000	133.066895	-1.308697
2697.000000	133.232697	-1.281975
2698.000000	133.398697	-1.257995
2699.000000	133.565384	-1.237358
2700.000000	133.728592	-1.220304
2701.000000	133.896286	-1.206527
2702.000000	134.061386	-1.195492
2703.000000	134.225296	-1.186651
2704.000000	134.389587	-1.179567
2705.000000	134.555496	-1.173807
2706.000000	134.718994	-1.169248
2707.000000	134.883789	-1.165589
2708.000000	135.051697	-1.162671
2709.000000	135.214783	-1.160255
2710.000000	135.379593	-1.158217
2711.000000	135.543884	-1.156476
2712.000000	135.708694	-1.154974
2713.000000	135.872589	-1.153534
2714.000000	136.041885	-1.152429
2715.000000	136.208694	-1.151415
2716.000000	136.372086	-1.150659
2717.000000	136.534790	-1.149870
2718.000000	136.699585	-1.149023
2719.000000	136.864594	-1.147985
2720.000000	137.030884	-1.146971
2721.000000	137.198196	-1.145579
2722.000000	137.361588	-1.144311
2723.000000	137.524796	-1.143058
2724.000000	137.689896	-1.141991
2725.000000	137.853683	-1.141020
2726.000000	138.018082	-1.140331
2727.000000	138.179993	-1.139843
2728.000000	138.345596	-1.139552
2729.000000	138.511185	-1.139422
2730.000000	138.674591	-1.139346
2731.000000	138.838196	-1.139250
2732.000000	139.003983	-1.139150
2733.000000	139.168884	-1.139078
2734.000000	139.335587	-1.138906
2735.000000	139.497391	-1.138949
2736.000000	139.663483	-1.139001
2737.000000	139.828186	-1.139049
2738.000000	139.993988	-1.139169
2739.000000	140.155792	-1.139212
2740.000000	140.318985	-1.139135
2741.000000	140.484085	-1.139226
2742.000000	140.647690	-1.139274
2743.000000	140.814087	-1.139236
2744.000000	140.978790	-1.139255
2745.000000	141.144196	-1.139284
2746.000000	141.308289	-1.139193
2747.000000	141.471588	-1.139021
2748.000000	141.636993	-1.138958
2749.000000	141.800385	-1.138786
2750.000000	141.965988	-1.138461
2751.000000	142.130493	-1.138102
2752.000000	142.293686	-1.137935
2753.000000	142.457794	-1.137820
2754.000000	142.622284	-1.137839
2755.000000	142.787384	-1.138011
2756.000000	142.951187	-1.138260
2757.000000	143.115692	-1.138557
2758.000000	143.280289	-1.138767
2759.000000	143.443283	-1.138877
2760.000000	143.607086	-1.139025
2761.000000	143.770691	-1.139179
2762.000000	143.933792	-1.139183
2763.000000	144.098389	-1.139088
2764.000000	144.259995	-1.139131
2765.000000	144.424393	-1.139097
2766.000000	144.590088	-1.139164
2767.000000	144.753296	-1.139427
2768.000000	144.918594	-1.139853
2769.000000	145.083984	-1.140350
2770.000000	145.246094	-1.141149
2771.000000	145.409485	-1.141939
2772.000000	145.575592	-1.142618
2773.000000	145.739487	-1.143264
2774.000000	145.903290	-1.143828
2775.000000	146.067688	-1.144158
2776.000000	146.228683	-1.144350
2777.000000	146.395584	-1.144503
2778.000000	146.559189	-1.144727
2779.000000	146.723694	-1.144751
2780.000000	146.886581	-1.144804
2781.000000	147.050293	-1.144900
2782.000000	147.214096	-1.144971
2783.000000	147.376587	-1.144904
2784.000000	147.540390	-1.144995
2785.000000	147.703583	-1.145043
2786.000000	147.868896	-1.145167
2787.000000	148.031982	-1.145517
2788.000000	148.194992	-1.145928
2789.000000	148.358383	-1.146526
2790.000000	148.524094	-1.147239
2791.000000	148.687988	-1.147942
2792.000000	148.850784	-1.148602
2793.000000	149.014191	-1.149205
2794.000000	149.176987	-1.149530
2795.000000	149.335785	-1.147588
2796.000000	149.480896	-1.139547
2797.000000	149.593094	-1.120532
2798.000000	149.667786	-1.085056
2799.000000	149.699585	-1.027600
2800.000000	149.696091	-0.945708
2801.000000	149.654984	-0.840282
2802.000000	149.579895	-0.715223
2803.000000	149.482483	-0.576693
2804.000000	149.360382	-0.431988
2805.000000	149.223984	-0.288454
2806.000000	149.075882	-0.151757
2807.000000	148.921783	-0.026023
2808.000000	148.759583	0.086048
2809.000000	148.594391	0.183410
2810.000000	148.426086	0.266129
2811.000000	148.258591	0.334602
2812.000000	148.091995	0.390255
2813.000000	147.923996	0.434719
2814.000000	147.756088	0.469707
2815.000000	147.586182	0.496993
2816.000000	147.420197	0.518065
2817.000000	147.253784	0.534271
2818.000000	147.085892	0.546652
2819.000000	146.921188	0.556004
2820.000000	146.753891	0.563021
2821.000000	146.586594	0.568379
2822.000000	146.419083	0.572287
2823.000000	146.255692	0.575444
2824.000000	146.090897	0.577865
2825.000000	145.926193	0.579774
2826.000000	145.761383	0.581419
2827.000000	145.595688	0.582936
2828.000000	145.432281	0.584155
2829.000000	145.266586	0.585495
2830.000000	145.101593	0.586853
2831.000000	144.937790	0.588284
2832.000000	144.773590	0.589671
2833.000000	144.607193	0.591092
2834.000000	144.445892	0.592383
2835.000000	144.282593	0.593479
2836.000000	144.119293	0.594321
2837.000000	143.956192	0.595201
2838.000000	143.791382	0.595871
2839.000000	143.625092	0.596464
2840.000000	143.461990	0.597215
2841.000000	143.295395	0.597894
2842.000000	143.135193	0.598478
2843.000000	142.972992	0.599181
2844.000000	142.808884	0.599831
2845.000000	142.645386	0.600358
2846.000000	142.484482	0.600908
2847.000000	142.316086	0.601515
2848.000000	142.152496	0.601989
2849.000000	141.988693	0.602625
2850.000000	141.823593	0.603328
2851.000000	141.658783	0.604275
2852.000000	141.496185	0.605156
2853.000000	141.334396	0.606227
2854.000000	141.171188	0.607246
2855.000000	141.007492	0.608394
2856.000000	140.843796	0.609408
2857.000000	140.676987	0.610537
2858.000000	140.513290	0.611642
2859.000000	140.349991	0.612867
2860.000000	140.186493	0.614092
2861.000000	140.022491	0.615450
2862.000000	139.858093	0.616718
2863.000000	139.692795	0.618215
2864.000000	139.526596	0.619631
2865.000000	139.361389	0.621085
2866.000000	139.198792	0.622429
2867.000000	139.035385	0.623826
2868.000000	138.870590	0.624912
2869.000000	138.704590	0.625749
2870.000000	138.542389	0.626381
2871.000000	138.380585	0.626979
2872.000000	138.216293	0.627481
2873.000000	138.052292	0.627969
2874.000000	137.889389	0.628710
2875.000000	137.724792	0.629614
2876.000000	137.562683	0.630442
2877.000000	137.400085	0.631480
2878.000000	137.238083	0.632695
2879.000000	137.071991	0.633781
2880.000000	136.908295	0.634843
2881.000000	136.745087	0.636039
2882.000000	136.579895	0.637173
2883.000000	136.415695	0.638292
2884.000000	136.253586	0.639416
2885.000000	136.088089	0.640727
2886.000000	135.924988	0.642081
2887.000000	135.759293	0.643463
2888.000000	135.595093	0.644989
2889.000000	135.432693	0.646616
2890.000000	135.268692	0.648275
2891.000000	135.105682	0.650060
2892.000000	134.941986	0.651892
2893.000000	134.776886	0.653839
2894.000000	134.611588	0.655944
2895.000000	134.449692	0.658049
2896.000000	134.284195	0.660153
2897.000000	134.119293	0.662268
2898.000000	133.955093	0.664243
2899.000000	133.788086	0.666133
2900.000000	133.624985	0.667998
2901.000000	133.463196	0.669811
2902.000000	133.299194	0.671639
2903.000000	133.135986	0.673428
2904.000000	132.971786	0.675404
2905.000000	132.805695	0.677465
2906.000000	132.642395	0.679628
2907.000000	132.479385	0.682062
2908.000000	132.313492	0.684693
2909.000000	132.149796	0.687377
2910.000000	131.985886	0.690113
2911.000000	131.820786	0.692921
2912.000000	131.655991	0.695691
2913.000000	131.489792	0.698609
2914.000000	131.325684	0.701589
2915.000000	131.162582	0.704751
2916.000000	130.997086	0.708018
2917.000000	130.833191	0.711338
2918.000000	130.668884	0.714883
2919.000000	130.503693	0.718318
2920.000000	130.341690	0.721724
2921.000000	130.175690	0.725354
2922.000000	130.010696	0.729086
2923.000000	129.847794	0.732678
2924.000000	129.685989	0.736625
2925.000000	129.522186	0.740834
2926.000000	129.357590	0.745039
2927.000000	129.194092	0.749498
2928.000000	129.028992	0.754319
2929.000000	128.865585	0.759270
2930.000000	128.702988	0.764513
2931.000000	128.537491	0.770091
2932.000000	128.371796	0.775994
2933.000000	128.210693	0.782213
2934.000000	128.044891	0.788857
2935.000000	127.878494	0.795660
2936.000000	127.717300	0.802720
2937.000000	127.551201	0.810059
2938.000000	127.385094	0.817832
2939.000000	127.223495	0.826012
2940.000000	127.059494	0.834776
2941.000000	126.892998	0.844123
2942.000000	126.730301	0.853834
2943.000000	126.565994	0.863937
2944.000000	126.401100	0.874475
2945.000000	126.236900	0.885291
2946.000000	126.073097	0.896293
2947.000000	125.910500	0.907411
2948.000000	125.745094	0.918437
2949.000000	125.579796	0.929219
2950.000000	125.416298	0.939806
2951.000000	125.251595	0.949995
2952.000000	125.084595	0.959897
2953.000000	124.921898	0.969297
2954.000000	124.757698	0.978290
2955.000000	124.592896	0.986647
2956.000000	124.430099	0.994660
2957.000000	124.265495	1.002160
2958.000000	124.101395	1.009001
2959.000000	123.935097	1.014985
2960.000000	123.771996	1.020185
2961.000000	123.606094	1.024050
2962.000000	123.439499	1.026653
2963.000000	123.271896	1.027719
2964.000000	123.107094	1.027121
2965.000000	122.938400	1.024232
2966.000000	122.774399	1.018817
2967.000000	122.606796	1.010321
2968.000000	122.438698	0.998429
2969.000000	122.272797	0.982820
2970.000000	122.105995	0.963944
2971.000000	121.938797	0.942293
2972.000000	121.772598	0.918461
2973.000000	121.603699	0.893476
2974.000000	121.433594	0.868653
2975.000000	121.266296	0.844931
2976.000000	121.100700	0.823242
2977.000000	120.932693	0.804165
2978.000000	120.767601	0.787982
2979.000000	120.600899	0.774573
2980.000000	120.436195	0.763404
2981.000000	120.270294	0.754190
2982.000000	120.102898	0.746594
2983.000000	119.937500	0.740284
2984.000000	119.773697	0.734922
2985.000000	119.605896	0.730478
2986.000000	119.441399	0.726565
2987.000000	119.276100	0.723140
2988.000000	119.109200	0.720159
2989.000000	118.942795	0.717548
2990.000000	118.779099	0.715122
2991.000000	118.612198	0.712912
2992.000000	118.447098	0.710980
2993.000000	118.282097	0.709143
2994.000000	118.116898	0.707339
2995.000000	117.951599	0.705569
2996.000000	117.784798	0.703909
2997.000000	117.619499	0.702163
2998.000000	117.453697	0.700446
2999.000000	117.288994	0.698767
3000.000000	117.124596	0.697274
3001.000000	116.961594	0.695849
3002.000000	116.796394	0.694476
3003.000000	116.629898	0.693314
3004.000000	116.464195	0.692342
3005.000000	116.297195	0.691491
3006.000000	116.132195	0.690864
3007.000000	115.968994	0.690553
3008.000000	115.803200	0.690333
3009.000000	115.637894	0.690209
3010.000000	115.471298	0.690094
3011.000000	115.305901	0.689994
3012.000000	115.141197	0.689941
3013.000000	114.975296	0.689994
3014.000000	114.810196	0.690061
3015.000000	114.643898	0.690257
3016.000000	114.476395	0.690439
3017.000000	114.308701	0.690329
3018.000000	114.145096	0.690132
3019.000000	113.978195	0.689841
3020.000000	113.812698	0.689458
3021.000000	113.647499	0.688956
3022.000000	113.482498	0.688645
3023.000000	113.316498	0.688420
3024.000000	113.151001	0.688262
3025.000000	112.984795	0.688109
3026.000000	112.819695	0.688052
3027.000000	112.651100	0.688037
3028.000000	112.486496	0.687874
3029.000000	112.319000	0.687831
3030.000000	112.153595	0.687736
3031.000000	111.985794	0.687621
3032.000000	111.820900	0.687415
3033.000000	111.655594	0.687358
3034.000000	111.489296	0.687071
3035.000000	111.325600	0.686813
3036.000000	111.161194	0.686535
3037.000000	110.993996	0.686349
3038.000000	110.827599	0.686052
3039.000000	110.662498	0.685932
3040.000000	110.494499	0.685913
3041.000000	110.327995	0.686028
3042.000000	110.162399	0.686133
3043.000000	109.996796	0.686296
3044.000000	109.830795	0.686497
3045.000000	109.662094	0.686621
3046.000000	109.496895	0.686688
3047.000000	109.331100	0.686693
3048.000000	109.165100	0.686688
3049.000000	109.000099	0.686602
3050.000000	108.834297	0.686478
3051.000000	108.667000	0.686282
3052.000000	108.502800	0.686066
3053.000000	108.335701	0.685908
3054.000000	108.170998	0.685770
3055.000000	108.004295	0.685717
3056.000000	107.835701	0.685808
3057.000000	107.670799	0.685865
3058.000000	107.503601	0.685851
3059.000000	107.339195	0.685779
3060.000000	107.173195	0.685684
3061.000000	107.006897	0.685459
3062.000000	106.840797	0.685253
3063.000000	106.674095	0.685205
3064.000000	106.508095	0.685368
3065.000000	106.341599	0.685645
3066.000000	106.175201	0.686033
3067.000000	106.009598	0.686616
3068.000000	105.840996	0.687229
3069.000000	105.674995	0.687674
3070.000000	105.509094	0.688219
3071.000000	105.343597	0.688889
3072.000000	105.178200	0.689491
3073.000000	105.012596	0.690065
3074.000000	104.845894	0.690788
3075.000000	104.678101	0.691304
3076.000000	104.511101	0.691716
3077.000000	104.346298	0.692180
3078.000000	104.178497	0.692567
3079.000000	104.011795	0.692716
3080.000000	103.845901	0.693022
3081.000000	103.680000	0.693381
3082.000000	103.513298	0.693620
3083.000000	103.348701	0.693897
3084.000000	103.181496	0.694352
3085.000000	103.014000	0.694663
3086.000000	102.845299	0.695107
3087.000000	102.678299	0.695667
3088.000000	102.513000	0.696150
3089.000000	102.345398	0.696643
3090.000000	102.179298	0.697231
3091.000000	102.013596	0.697547
3092.000000	101.845299	0.697758
3093.000000	101.679001	0.698107
3094.000000	101.514297	0.698317
3095.000000	101.345497	0.698322
3096.000000	101.179497	0.698547
3097.000000	101.012794	0.698695
3098.000000	100.845795	0.698623
3099.000000	100.679596	0.698652
3100.000000	100.514694	0.698757
3101.000000	100.345596	0.698700
3102.000000	100.179901	0.698729
3103.000000	100.014297	0.698824
3104.000000	99.846497	0.698858
3105.000000	99.679298	0.698872
3106.000000	99.516197	0.698934
3107.000000	99.347801	0.698853
3108.000000	99.181999	0.698695
3109.000000	99.013802	0.698690
3110.000000	98.846497	0.698839
3111.000000	98.682899	0.699107
3112.000000	98.514900	0.699494
3113.000000	98.346298	0.700221
3114.000000	98.181999	0.700862
3115.000000	98.014900	0.701398
3116.000000	97.847496	0.701867
3117.000000	97.680000	0.702450
3118.000000	97.512794	0.702905
3119.000000	97.347397	0.703259
3120.000000	97.179100	0.703704
3121.000000	97.013496	0.704048
3122.000000	96.845901	0.704263
3123.000000	96.677795	0.704392
3124.000000	96.511398	0.704670
3125.000000	96.343399	0.705033
3126.000000	96.178001	0.705459
3127.000000	96.011002	0.705837
3128.000000	95.844299	0.706253
3129.000000	95.678398	0.706646
3130.000000	95.511696	0.706985
3131.000000	95.344894	0.707263
3132.000000	95.176697	0.707645
3133.000000	95.009094	0.707999
3134.000000	94.842697	0.708272
3135.000000	94.673798	0.708449
3136.000000	94.507401	0.708640
3137.000000	94.341301	0.708817
3138.000000	94.174095	0.708841
3139.000000	94.006798	0.708870
3140.000000	93.840500	0.708990
3141.000000	93.675499	0.709095
3142.000000	93.507599	0.709243
3143.000000	93.341896	0.709449
3144.000000	93.172997	0.709774
3145.000000	93.005600	0.710085
3146.000000	92.839996	0.710372
3147.000000	92.671600	0.710673
3148.000000	92.505295	0.711061
3149.000000	92.338898	0.711338
3150.000000	92.172195	0.711688
3151.000000	92.002899	0.712018
3152.000000	91.838898	0.712262
3153.000000	91.671295	0.712553
3154.000000	91.505402	0.712821
3155.000000	91.337097	0.712969
3156.000000	91.170799	0.713209
3157.000000	91.000198	0.713620
3158.000000	90.833496	0.714065
3159.000000	90.665298	0.714649
3160.000000	90.497696	0.715328
3161.000000	90.330498	0.716041
3162.000000	90.165199	0.716739
3163.000000	89.998199	0.717361
3164.000000	89.831100	0.717902
3165.000000	89.665398	0.718389
3166.000000	89.497002	0.718920
3167.000000	89.330101	0.719447
3168.000000	89.166000	0.719896
3169.000000	88.995399	0.720561
3170.000000	88.829697	0.721298
3171.000000	88.663101	0.721910
3172.000000	88.495499	0.722523
3173.000000	88.325798	0.723293
3174.000000	88.158600	0.723848
3175.000000	87.989899	0.724364
3176.000000	87.822800	0.724914
3177.000000	87.657501	0.725302
3178.000000	87.488197	0.725598
3179.000000	87.321297	0.725895
3180.000000	87.154396	0.726201
3181.000000	86.987900	0.726469
3182.000000	86.820900	0.726813
3183.000000	86.653397	0.727024
3184.000000	86.485298	0.727277
3185.000000	86.317795	0.727459
3186.000000	86.147095	0.727655
3187.000000	85.980995	0.727722
3188.000000	85.817001	0.727880
3189.000000	85.648994	0.727971
3190.000000	85.482201	0.727871
3191.000000	85.313599	0.727832
3192.000000	85.145897	0.727765
3193.000000	84.979698	0.727698
3194.000000	84.813202	0.727780
3195.000000	84.645195	0.727875
3196.000000	84.475998	0.727981
3197.000000	84.308296	0.728148
3198.000000	84.138802	0.728493
3199.000000	83.972298	0.728727
3200.000000	83.805397	0.729009
3201.000000	83.635201	0.729291
3202.000000	83.468796	0.729746
3203.000000	83.301300	0.730042
3204.000000	83.132896	0.730215
3205.000000	82.967796	0.730425
3206.000000	82.800400	0.730492
3207.000000	82.633499	0.730545
3208.000000	82.464798	0.730640
3209.000000	82.296295	0.730789
3210.000000	82.130295	0.731047
3211.000000	81.963600	0.731497
3212.000000	81.796501	0.731932
3213.000000	81.625099	0.732372
3214.000000	81.458801	0.732807
3215.000000	81.290298	0.733324
3216.000000	81.122398	0.733860
3217.000000	80.954796	0.734439
3218.000000	80.786301	0.735013
3219.000000	80.616798	0.735706
3220.000000	80.451195	0.736381
3221.000000	80.281700	0.736893
3222.000000	80.117798	0.737400
3223.000000	79.949097	0.737964
3224.000000	79.779999	0.738562
3225.000000	79.613197	0.739184
3226.000000	79.445000	0.739844
3227.000000	79.276001	0.740375
3228.000000	79.106400	0.740777
3229.000000	78.941597	0.741078
3230.000000	78.774300	0.741284
3231.000000	78.605202	0.741595
3232.000000	78.439301	0.741920
3233.000000	78.271996	0.742260
3234.000000	78.104401	0.742542
3235.000000	77.936600	0.742839
3236.000000	77.766602	0.743197
3237.000000	77.598099	0.743633
3238.000000	77.430397	0.744149
3239.000000	77.262199	0.744743
3240.000000	77.092697	0.745422
3241.000000	76.925995	0.745924
3242.000000	76.757500	0.746364
3243.000000	76.590302	0.746823
3244.000000	76.423698	0.747216
3245.000000	76.254196	0.747536
3246.000000	76.088799	0.747809
3247.000000	75.919701	0.748053
3248.000000	75.750999	0.748259
3249.000000	75.583298	0.748536
3250.000000	75.414299	0.748780
3251.000000	75.247101	0.749144
3252.000000	75.078499	0.749588
3253.000000	74.909500	0.750014
3254.000000	74.742699	0.750507
3255.000000	74.575195	0.751038
3256.000000	74.406296	0.751679
3257.000000	74.238297	0.752468
3258.000000	74.069099	0.753200
3259.000000	73.901100	0.753865
3260.000000	73.730896	0.754377
3261.000000	73.564301	0.754683
3262.000000	73.394501	0.754898
3263.000000	73.228401	0.755047
3264.000000	73.062096	0.755161
3265.000000	72.892395	0.755295
3266.000000	72.725395	0.755295
3267.000000	72.557297	0.755228
3268.000000	72.389198	0.755166
3269.000000	72.222900	0.755032
3270.000000	72.053200	0.755137
3271.000000	71.885796	0.755372
3272.000000	71.717102	0.755573
3273.000000	71.549400	0.755931
3274.000000	71.381302	0.756348
3275.000000	71.214600	0.756687
3276.000000	71.046898	0.757108
3277.000000	70.876602	0.757577
3278.000000	70.709496	0.757984
3279.000000	70.539696	0.758519
3280.000000	70.370499	0.758912
3281.000000	70.205101	0.759208
3282.000000	70.035995	0.759381
3283.000000	69.865196	0.759591
3284.000000	69.697998	0.759691
3285.000000	69.528099	0.759849
3286.000000	69.361000	0.760036
3287.000000	69.192795	0.760299
3288.000000	69.025795	0.760428
3289.000000	68.858002	0.760624
3290.000000	68.689995	0.760753
3291.000000	68.519798	0.760887
3292.000000	68.350998	0.760954
3293.000000	68.183601	0.761131
3294.000000	68.014900	0.761237
3295.000000	67.844597	0.761385
3296.000000	67.675797	0.761610
3297.000000	67.507095	0.762074
3298.000000	67.338898	0.762500
3299.000000	67.171700	0.762983
3300.000000	67.000900	0.763614
3301.000000	66.834000	0.764327
3302.000000	66.664101	0.764863
3303.000000	66.497299	0.765374
3304.000000	66.329399	0.765958
3305.000000	66.160599	0.766570
3306.000000	65.990898	0.767077
3307.000000	65.819901	0.767733
3308.000000	65.650497	0.768527
3309.000000	65.481796	0.769268
3310.000000	65.313499	0.769852
3311.000000	65.146599	0.770550
3312.000000	64.976700	0.771191
3313.000000	64.808395	0.771713
3314.000000	64.640800	0.772177
3315.000000	64.470596	0.772674
3316.000000	64.304497	0.772995
3317.000000	64.137398	0.773239
3318.000000	63.966900	0.773497
3319.000000	63.799400	0.773751
3320.000000	63.632298	0.773961
3321.000000	63.461899	0.774368
3322.000000	63.295300	0.774774
3323.000000	63.127399	0.775195
3324.000000	62.960400	0.775750
3325.000000	62.790100	0.776276
3326.000000	62.621201	0.776755
3327.000000	62.450699	0.777305
3328.000000	62.283298	0.777912
3329.000000	62.115700	0.778309
3330.000000	61.946800	0.778840
3331.000000	61.778297	0.779204
3332.000000	61.609798	0.779558
3333.000000	61.440701	0.779783
3334.000000	61.270699	0.780137
3335.000000	61.102600	0.780462
3336.000000	60.936100	0.780677
3337.000000	60.766399	0.780859
3338.000000	60.597797	0.780983
3339.000000	60.428799	0.781046
3340.000000	60.258801	0.780993
3341.000000	60.089199	0.781027
3342.000000	59.918800	0.780945
3343.000000	59.750401	0.780917
3344.000000	59.582100	0.780687
3345.000000	59.412598	0.780620
3346.000000	59.244499	0.780577
3347.000000	59.075397	0.780543
3348.000000	58.905899	0.780510
3349.000000	58.736500	0.780797
3350.000000	58.567200	0.780955
3351.000000	58.398899	0.781127
3352.000000	58.229000	0.781242
3353.000000	58.059299	0.781371
3354.000000	57.889400	0.781237
3355.000000	57.719997	0.781232
3356.000000	57.552998	0.781113
3357.000000	57.384499	0.781089
3358.000000	57.217197	0.780988
3359.000000	57.048500	0.781094
3360.000000	56.879700	0.780921
3361.000000	56.709900	0.780840
3362.000000	56.542599	0.780759
3363.000000	56.373699	0.780859
3364.000000	56.205200	0.780897
3365.000000	56.037098	0.781070
3366.000000	55.867897	0.781424
3367.000000	55.699200	0.781634
3368.000000	55.530800	0.781993
3369.000000	55.361698	0.782596
3370.000000	55.192101	0.783275
3371.000000	55.022697	0.783968
3372.000000	54.855099	0.784935
3373.000000	54.687599	0.785858
3374.000000	54.517097	0.786738
3375.000000	54.348999	0.787661
3376.000000	54.177299	0.788604
3377.000000	54.009197	0.789623
3378.000000	53.839199	0.790599
3379.000000	53.668098	0.791541
3380.000000	53.497700	0.792407
3381.000000	53.330700	0.793077
3382.000000	53.159798	0.793579
3383.000000	52.992901	0.794100
3384.000000	52.822300	0.794478
3385.000000	52.652599	0.794803
3386.000000	52.486797	0.795229
3387.000000	52.317200	0.795698
3388.000000	52.146000	0.795971
3389.000000	51.975899	0.796305
3390.000000	51.804798	0.796731
3391.000000	51.635998	0.797085
3392.000000	51.467598	0.797339
3393.000000	51.297600	0.797827
3394.000000	51.128799	0.798295
3395.000000	50.957199	0.798702
3396.000000	50.787899	0.799090
3397.000000	50.618298	0.799511
3398.000000	50.448997	0.799678
3399.000000	50.278198	0.799716
3400.000000	50.111000	0.799601
3401.000000	49.941700	0.799496
3402.000000	49.771198	0.799243
3403.000000	49.604099	0.798927
3404.000000	49.435898	0.798511
3405.000000	49.266098	0.798291
3406.000000	49.095699	0.797913
3407.000000	48.927399	0.797674
3408.000000	48.757900	0.797592
3409.000000	48.588398	0.797616
3410.000000	48.419300	0.797659
3411.000000	48.251900	0.797870
3412.000000	48.083797	0.798114
3413.000000	47.913200	0.798511
3414.000000	47.742500	0.798913
3415.000000	47.573898	0.799482
3416.000000	47.405499	0.800137
3417.000000	47.235100	0.800802
3418.000000	47.063400	0.801424
3419.000000	46.894001	0.802175
3420.000000	46.723801	0.802835
3421.000000	46.554001	0.803443
3422.000000	46.386101	0.803988
3423.000000	46.217499	0.804524
3424.000000	46.045898	0.804868
3425.000000	45.875599	0.805036
3426.000000	45.708797	0.805217
3427.000000	45.537498	0.805332
3428.000000	45.365799	0.805270
3429.000000	45.195000	0.805232
3430.000000	45.027901	0.805203
3431.000000	44.856899	0.805165
3432.000000	44.688000	0.805079
3433.000000	44.517799	0.805184
3434.000000	44.348698	0.805270
3435.000000	44.178799	0.805394
3436.000000	44.010399	0.805399
3437.000000	43.841599	0.805557
3438.000000	43.670498	0.805586
3439.000000	43.502098	0.805595
3440.000000	43.332600	0.805638
3441.000000	43.162899	0.805681
3442.000000	42.992401	0.805720
3443.000000	42.822800	0.805729
3444.000000	42.654400	0.805820
3445.000000	42.486801	0.805988
3446.000000	42.316898	0.806246
3447.000000	42.145500	0.806476
3448.000000	41.975498	0.806753
3449.000000	41.806900	0.807107
3450.000000	41.637299	0.807538
3451.000000	41.468300	0.807987
3452.000000	41.298298	0.808399
3453.000000	41.129700	0.808930
3454.000000	40.958797	0.809427
3455.000000	40.789101	0.809705
3456.000000	40.622200	0.809977
3457.000000	40.450001	0.810240
3458.000000	40.281898	0.810441
3459.000000	40.111500	0.810661
3460.000000	39.940300	0.810929
3461.000000	39.772598	0.811307
3462.000000	39.604401	0.811809
3463.000000	39.433998	0.812302
3464.000000	39.264801	0.812718
3465.000000	39.096699	0.813173
3466.000000	38.926098	0.813555
3467.000000	38.756599	0.813785
3468.000000	38.585598	0.814062
3469.000000	38.417000	0.814378
3470.000000	38.247898	0.814560
3471.000000	38.076797	0.814689
3472.000000	37.907700	0.814852
3473.000000	37.737698	0.814928
3474.000000	37.569599	0.815124
3475.000000	37.399899	0.815402
3476.000000	37.231800	0.815756
3477.000000	37.061600	0.816148
3478.000000	36.892601	0.816598
3479.000000	36.724098	0.816985
3480.000000	36.554298	0.817344
3481.000000	36.382698	0.817760
3482.000000	36.214001	0.818200
3483.000000	36.042801	0.818755
3484.000000	35.872498	0.819257
3485.000000	35.706001	0.819788
3486.000000	35.534901	0.820166
3487.000000	35.364300	0.820616
3488.000000	35.193501	0.820855
3489.000000	35.022900	0.821257
3490.000000	34.852200	0.821812
3491.000000	34.681499	0.822453
3492.000000	34.509300	0.823223
3493.000000	34.336399	0.824070
3494.000000	34.166100	0.824850
3495.000000	33.997601	0.825381
3496.000000	33.825798	0.825888
3497.000000	33.655201	0.826433
3498.000000	33.482998	0.827055
3499.000000	33.308399	0.827720
3500.000000	33.137798	0.828691
3501.000000	32.964500	0.829538
3502.000000	32.795399	0.830088
3503.000000	32.625000	0.830456
3504.000000	32.454399	0.830628
3505.000000	32.283298	0.830456
3506.000000	32.111900	0.830207
3507.000000	31.941799	0.830006
3508.000000	31.771099	0.830088
3509.000000	31.599800	0.830327
3510.000000	31.426899	0.830710
3511.000000	31.257200	0.831207
3512.000000	31.087200	0.831786
3513.000000	30.917299	0.832250
3514.000000	30.745100	0.832537
3515.000000	30.572701	0.832877
3516.000000	30.400200	0.833226
3517.000000	30.230000	0.833374
3518.000000	30.057800	0.833589
3519.000000	29.888000	0.833819
3520.000000	29.716000	0.833867
3521.000000	29.543999	0.833962
3522.000000	29.373100	0.834182
3523.000000	29.201099	0.834364
3524.000000	29.027399	0.834584
3525.000000	28.856199	0.834728
3526.000000	28.687399	0.834656
3527.000000	28.515400	0.834661
3528.000000	28.345100	0.834570
3529.000000	28.174799	0.834273
3530.000000	28.003201	0.834149
3531.000000	27.834099	0.834321
3532.000000	27.662899	0.834316
3533.000000	27.492899	0.834192
3534.000000	27.321600	0.834379
3535.000000	27.150400	0.834733
3536.000000	26.981100	0.834905
3537.000000	26.811600	0.835216
3538.000000	26.639200	0.835761
3539.000000	26.468300	0.836359
3540.000000	26.297400	0.836818
3541.000000	26.124899	0.837402
3542.000000	25.955400	0.838311
3543.000000	25.782200	0.839033
3544.000000	25.609600	0.839578
3545.000000	25.438900	0.840239
3546.000000	25.266399	0.841033
3547.000000	25.095400	0.841344
3548.000000	24.922300	0.841678
3549.000000	24.753300	0.842133
3550.000000	24.581299	0.842420
3551.000000	24.411200	0.842276
3552.000000	24.241400	0.842530
3553.000000	24.066999	0.843109
3554.000000	23.895500	0.843668
3555.000000	23.726500	0.844309
3556.000000	23.555500	0.845596
3557.000000	23.383900	0.846625
3558.000000	23.212200	0.847294
3559.000000	23.040199	0.848333
3560.000000	22.872400	0.849595
3561.000000	22.698400	0.850370
3562.000000	22.529200	0.851246
3563.000000	22.354900	0.852585
3564.000000	22.182899	0.853623
3565.000000	22.011099	0.854427
3566.000000	21.841299	0.855618
3567.000000	21.669600	0.856900
3568.000000	21.497200	0.857842
3569.000000	21.327299	0.858436
3570.000000	21.155899	0.859153
3571.000000	20.983900	0.859655
3572.000000	20.815100	0.859789
3573.000000	20.644300	0.859770
3574.000000	20.472099	0.860139
3575.000000	20.298201	0.860435
3576.000000	20.126801	0.860363
3577.000000	19.955500	0.860335
3578.000000	19.785900	0.860536
3579.000000	19.612801	0.860373
3580.000000	19.440001	0.859761
3581.000000	19.270201	0.859430
3582.000000	19.097401	0.859077
3583.000000	18.926500	0.858297
3584.000000	18.755501	0.857665
3585.000000	18.586100	0.857359
3586.000000	18.415600	0.856833
3587.000000	18.242800	0.856283
3588.000000	18.071600	0.856044
3589.000000	17.901501	0.855781
3590.000000	17.725901	0.855331
3591.000000	17.557699	0.855034
3592.000000	17.386101	0.854972
3593.000000	17.212700	0.854657
3594.000000	17.041000	0.854202
3595.000000	16.873199	0.853944
3596.000000	16.703199	0.853987
3597.000000	16.531599	0.853877
3598.000000	16.359800	0.853772
3599.000000	16.186800	0.854130
3600.000000	16.015099	0.854905
3601.000000	15.844200	0.855350
3602.000000	15.670700	0.855704
3603.000000	15.498100	0.856532
3604.000000	15.326700	0.857240
3605.000000	15.154200	0.857359
3606.000000	14.982500	0.857685
3607.000000	14.811400	0.858244
3608.000000	14.642100	0.858316
3609.000000	14.468800	0.858225
3610.000000	14.295000	0.858507
3611.000000	14.122800	0.858560
3612.000000	13.950200	0.858254
3613.000000	13.783000	0.858278
3614.000000	13.611700	0.858349
3615.000000	13.439300	0.858359
3616.000000	13.268000	0.858244
3617.000000	13.095800	0.858445
3618.000000	12.926100	0.858794
3619.000000	12.754400	0.859206
3620.000000	12.580800	0.859478
3621.000000	12.408300	0.859895
3622.000000	12.238200	0.860426
3623.000000	12.067200	0.860885
3624.000000	11.896200	0.861119
3625.000000	11.722700	0.861181
3626.000000	11.556000	0.861344
3627.000000	11.385201	0.861449
3628.000000	11.212600	0.861330
3629.000000	11.039800	0.861650
3630.000000	10.867800	0.862095
3631.000000	10.698000	0.862521
3632.000000	10.523300	0.863114
3633.000000	10.350700	0.863879
3634.000000	10.178800	0.864252
3635.000000	10.005301	0.864563
3636.000000	9.833600	0.864946
3637.000000	9.660400	0.865094
3638.000000	9.489700	0.864980
3639.000000	9.317101	0.864702
3640.000000	9.146600	0.864597
3641.000000	8.975500	0.864391
3642.000000	8.803600	0.864147
3643.000000	8.629300	0.863980
3644.000000	8.456900	0.863975
3645.000000	8.287100	0.863946
3646.000000	8.115400	0.863870
3647.000000	7.944400	0.863946
3648.000000	7.772799	0.864166
3649.000000	7.599100	0.864319
3650.000000	7.427800	0.864444
3651.000000	7.257100	0.864683
3652.000000	7.083400	0.864697
3653.000000	6.911600	0.864721
3654.000000	6.738700	0.864760
3655.000000	6.565900	0.864793
3656.000000	6.395200	0.864846
3657.000000	6.227900	0.864822
3658.000000	6.054000	0.864721
3659.000000	5.884000	0.864774
3660.000000	5.709900	0.864889
3661.000000	5.536300	0.865185
3662.000000	5.364500	0.865731
3663.000000	5.190400	0.866166
3664.000000	5.017400	0.866429
3665.000000	4.848300	0.866544
3666.000000	4.676500	0.866065
3667.000000	4.507100	0.865185
3668.000000	4.335200	0.864367
3669.000000	4.161600	0.863712
3670.000000	3.988700	0.863133
3671.000000	3.819000	0.862994
3672.000000	3.646400	0.863425
3673.000000	3.473600	0.864109
3674.000000	3.300300	0.864903
3675.000000	3.125400	0.865884
3676.000000	2.952300	0.866616
3677.000000	2.779900	0.867156
3678.000000	2.608000	0.867438
3679.000000	2.437100	0.867367
3680.000000	2.264200	0.867027
3681.000000	2.095200	0.866678
3682.000000	1.923100	0.866065
3683.000000	1.752100	0.865362
3684.000000	1.581800	0.864678
3685.000000	1.411900	0.864157
3686.000000	1.239100	0.863621
3687.000000	1.067400	0.863047
3688.000000	0.899000	0.862468
3689.000000	0.728300	0.861913
3690.000000	0.561000	0.861196
3691.000000	0.388600	0.860430
3692.000000	0.218200	0.859718
3693.000000	0.046000	0.858852
3694.000000	-0.121200	0.857828
3695.000000	-0.287700	0.856694
3696.000000	-0.459200	0.855532
3697.000000	-0.628100	0.854173
3698.000000	-0.795700	0.852834
3699.000000	-0.963800	0.851461
3700.000000	-1.130800	0.850074
3701.000000	-1.298500	0.848682
3702.000000	-1.465400	0.847304
3703.000000	-1.630100	0.845845
3704.000000	-1.794400	0.844396
3705.000000	-1.962900	0.842793
3706.000000	-2.128200	0.841085
3707.000000	-2.290400	0.839334
3708.000000	-2.454900	0.837536
3709.000000	-2.618800	0.835670
3710.000000	-2.781400	0.833833
3711.000000	-2.945600	0.832068
3712.000000	-3.105200	0.830198
3713.000000	-3.263900	0.828361
3714.000000	-3.427100	0.826514
3715.000000	-3.589500	0.824687
3716.000000	-3.746900	0.822668
3717.000000	-3.907800	0.820807
3718.000000	-4.068400	0.818870
3719.000000	-4.226600	0.816913
3720.000000	-4.386700	0.814885
3721.000000	-4.545600	0.812876
3722.000000	-4.703400	0.810810
3723.000000	-4.862800	0.808858
3724.000000	-5.018700	0.806868
3725.000000	-5.178300	0.804993
3726.000000	-5.335900	0.803127
3727.000000	-5.490700	0.801290
3728.000000	-5.647900	0.799276
3729.000000	-5.803100	0.797238
3730.000000	-5.958000	0.795153
3731.000000	-6.112000	0.793077
3732.000000	-6.265000	0.791024
3733.000000	-6.419500	0.788967
3734.000000	-6.572100	0.787059
3735.000000	-6.725700	0.784968
3736.000000	-6.877200	0.782940
3737.000000	-7.029500	0.780835
3738.000000	-7.180700	0.778807
3739.000000	-7.333900	0.776597
3740.000000	-7.484800	0.774569
3741.000000	-7.632300	0.772493
3742.000000	-7.783100	0.770397
3743.000000	-7.932500	0.768269
3744.000000	-8.080199	0.766236
3745.000000	-8.228299	0.764260
3746.000000	-8.377899	0.762222
3747.000000	-8.521000	0.760285
3748.000000	-8.667000	0.758342
3749.000000	-8.815999	0.756357
3750.000000	-8.960199	0.754291
3751.000000	-9.105399	0.752310
3752.000000	-9.250600	0.750282
3753.000000	-9.394099	0.748263
3754.000000	-9.539599	0.746297
3755.000000	-9.684199	0.744317
3756.000000	-9.828500	0.742255
3757.000000	-9.971000	0.740217
3758.000000	-10.114200	0.738371
3759.000000	-10.257099	0.736486
3760.000000	-10.397900	0.734592
3761.000000	-10.540999	0.732707
3762.000000	-10.681099	0.730789
3763.000000	-10.822900	0.728760
3764.000000	-10.961800	0.726746
3765.000000	-11.100699	0.724809
3766.000000	-11.239100	0.722924
3767.000000	-11.377000	0.720977
3768.000000	-11.514899	0.719026
3769.000000	-11.653299	0.717069
3770.000000	-11.791100	0.715041
3771.000000	-11.927500	0.713132
3772.000000	-12.065800	0.711190
3773.000000	-12.199300	0.709224
3774.000000	-12.336499	0.707310
3775.000000	-12.472099	0.705359
3776.000000	-12.605200	0.703283
3777.000000	-12.740399	0.701364
3778.000000	-12.873799	0.699346
3779.000000	-13.006899	0.697447
3780.000000	-13.140499	0.695567
3781.000000	-13.272499	0.693648
3782.000000	-13.404799	0.691716
3783.000000	-13.536900	0.689994
3784.000000	-13.667799	0.688123
3785.000000	-13.798800	0.686239
3786.000000	-13.928599	0.684488
3787.000000	-14.058599	0.682809
3788.000000	-14.188499	0.680871
3789.000000	-14.316699	0.678963
3790.000000	-14.443299	0.677126
3791.000000	-14.573199	0.675145
3792.000000	-14.705599	0.673112
3793.000000	-14.832399	0.671352
3794.000000	-14.959499	0.669558
3795.000000	-15.087500	0.667740
3796.000000	-15.217199	0.665980
3797.000000	-15.343199	0.664219
3798.000000	-15.470200	0.662359
3799.000000	-15.597198	0.660464
3800.000000	-15.721300	0.658623
3801.000000	-15.846600	0.656833
3802.000000	-15.972399	0.655039
3803.000000	-16.097500	0.653222
3804.000000	-16.221800	0.651428
3805.000000	-16.341599	0.649581
3806.000000	-16.466900	0.647840
3807.000000	-16.589899	0.646032
3808.000000	-16.712099	0.644229
3809.000000	-16.834799	0.642602
3810.000000	-16.958199	0.640909
3811.000000	-17.078899	0.639158
3812.000000	-17.200899	0.637421
3813.000000	-17.318899	0.635766
3814.000000	-17.438999	0.634149
3815.000000	-17.559599	0.632552
3816.000000	-17.677799	0.630916
3817.000000	-17.794800	0.629246
3818.000000	-17.912600	0.627534
3819.000000	-18.033699	0.625697
3820.000000	-18.151299	0.623965
3821.000000	-18.269299	0.622142
3822.000000	-18.386000	0.620439
3823.000000	-18.502100	0.618784
3824.000000	-18.618599	0.617129
3825.000000	-18.734900	0.615445
3826.000000	-18.847799	0.613761
3827.000000	-18.963299	0.612011
3828.000000	-19.078299	0.610274
3829.000000	-19.191799	0.608605
3830.000000	-19.306999	0.606902
3831.000000	-19.421499	0.605304
3832.000000	-19.534500	0.603678
3833.000000	-19.651098	0.602003
3834.000000	-19.763899	0.600262
