TITLE,c
DATA TYPE,ULTRAVIOLET SPECTRUM
ORIGIN,JASCO
OWNER,
DATE,24/07/09
TIME,16:29:48
SPECTROMETER/DATA SYSTEM,
LOCALE,1041
RESOLUTION,
DELTAX,-0.2
XUNITS,NANOMETERS
YUNITS,ABSORBANCE
FIRSTX,  800.0000
LASTX,  200.0000
NPOINTS,    3001
FIRSTY,     0.00141
MAXY,     1.37313
MINY,     0.00090
XYDATA
800.0000,0.00140794
799.8000,0.00140872
799.6000,0.00140908
799.4000,0.00141129
799.2000,0.00140908
799.0000,0.00140436
798.8000,0.0014009
798.6000,0.0014006
798.4000,0.00139505
798.2000,0.00139833
798.0000,0.00139845
797.8000,0.00139815
797.6000,0.00139678
797.4000,0.00139738
797.2000,0.00139457
797.0000,0.0013932
796.8000,0.00139254
796.6000,0.00139499
796.4000,0.00139726
796.2000,0.00140168
796.0000,0.00140436
795.8000,0.0014092
795.6000,0.00141421
795.4000,0.00141755
795.2000,0.00142281
795.0000,0.00142066
794.8000,0.00141875
794.6000,0.00141708
794.4000,0.00141666
794.2000,0.00142126
794.0000,0.00142084
793.8000,0.00142006
793.6000,0.00141666
793.4000,0.00140908
793.2000,0.00140424
793.0000,0.00139648
792.8000,0.00139774
792.6000,0.00139099
792.4000,0.00139081
792.2000,0.00138747
792.0000,0.00138204
791.8000,0.00138228
791.6000,0.00138645
791.4000,0.00138819
791.2000,0.0013852
791.0000,0.00137326
790.8000,0.00137392
790.6000,0.00137052
790.4000,0.00136765
790.2000,0.00136622
790.0000,0.00136329
789.8000,0.00135744
789.6000,0.00135153
789.4000,0.001347
789.2000,0.00133733
789.0000,0.0013338
788.8000,0.00133094
788.6000,0.00132694
788.4000,0.00131434
788.2000,0.00130724
788.0000,0.00130432
787.8000,0.00130503
787.6000,0.00130002
787.4000,0.00129924
787.2000,0.00130324
787.0000,0.00130479
786.8000,0.00130611
786.6000,0.00130927
786.4000,0.00130623
786.2000,0.0013067
786.0000,0.00131034
785.8000,0.00130724
785.6000,0.00131005
785.4000,0.00130479
785.2000,0.00131011
785.0000,0.00131375
784.8000,0.00131213
784.6000,0.00131213
784.4000,0.00131225
784.2000,0.00130915
784.0000,0.00130455
783.8000,0.0013027
783.6000,0.00130085
783.4000,0.00129948
783.2000,0.00129847
783.0000,0.00129661
782.8000,0.00129035
782.6000,0.0012925
782.4000,0.00128891
782.2000,0.00128999
782.0000,0.00128378
781.8000,0.0012802
781.6000,0.00127602
781.4000,0.00127351
781.2000,0.00126975
781.0000,0.00126975
780.8000,0.00127023
780.6000,0.00127047
780.4000,0.00127184
780.2000,0.00127095
780.0000,0.00127035
779.8000,0.0012719
779.6000,0.00127363
779.4000,0.00126898
779.2000,0.00126498
779.0000,0.00125972
778.8000,0.00126044
778.6000,0.00125674
778.4000,0.0012565
778.2000,0.00125399
778.0000,0.00125346
777.8000,0.00124522
777.6000,0.00124092
777.4000,0.00123316
777.2000,0.00122755
777.0000,0.00121979
776.8000,0.00122116
776.6000,0.00121573
776.4000,0.0012131
776.2000,0.00120958
776.0000,0.00120289
775.8000,0.00120194
775.6000,0.00119818
775.4000,0.0011949
775.2000,0.00119519
775.0000,0.00119525
774.8000,0.00119173
774.6000,0.00119418
774.4000,0.00118982
774.2000,0.00118821
774.0000,0.00118385
773.8000,0.00118343
773.6000,0.00117908
773.4000,0.00117949
773.2000,0.00117848
773.0000,0.00117681
772.8000,0.00118045
772.6000,0.00117812
772.4000,0.00118051
772.2000,0.00118158
772.0000,0.00117884
771.8000,0.00117824
771.6000,0.00117979
771.4000,0.00118129
771.2000,0.00118302
771.0000,0.00118911
770.8000,0.00119155
770.6000,0.00119346
770.4000,0.00119072
770.2000,0.00118928
770.0000,0.00119161
769.8000,0.00119758
769.6000,0.00120439
769.4000,0.00121161
769.2000,0.00121501
769.0000,0.00121716
768.8000,0.00121997
768.6000,0.00122021
768.4000,0.00121704
768.2000,0.00121519
768.0000,0.00121483
767.8000,0.00120916
767.6000,0.00120737
767.4000,0.00120767
767.2000,0.00120731
767.0000,0.00120994
766.8000,0.001206
766.6000,0.00120039
766.4000,0.00118815
766.2000,0.0011792
766.0000,0.00116785
765.8000,0.00116266
765.6000,0.0011543
765.4000,0.00114654
765.2000,0.00114457
765.0000,0.00114081
764.8000,0.00113854
764.6000,0.00113711
764.4000,0.00113586
764.2000,0.00113299
764.0000,0.00113216
763.8000,0.00112899
763.6000,0.00112655
763.4000,0.00113061
763.2000,0.00113765
763.0000,0.00113598
762.8000,0.00113962
762.6000,0.00113669
762.4000,0.00113741
762.2000,0.00113825
762.0000,0.00114004
761.8000,0.00114111
761.6000,0.00114475
761.4000,0.00114016
761.2000,0.00113466
761.0000,0.00112923
760.8000,0.00113031
760.6000,0.00112744
760.4000,0.00112434
760.2000,0.00111825
760.0000,0.00111341
759.8000,0.00111282
759.6000,0.00111013
759.4000,0.00111109
759.2000,0.0011158
759.0000,0.00111765
758.8000,0.00111437
758.6000,0.00111717
758.4000,0.00111377
758.2000,0.00111192
758.0000,0.00111944
757.8000,0.00112189
757.6000,0.00112004
757.4000,0.00111628
757.2000,0.00111586
757.0000,0.00111407
756.8000,0.00110941
756.6000,0.00110864
756.4000,0.00110846
756.2000,0.0011035
756.0000,0.00109628
755.8000,0.00109103
755.6000,0.00108625
755.4000,0.00107658
755.2000,0.00107258
755.0000,0.00107139
754.8000,0.00106166
754.6000,0.00105432
754.4000,0.00104781
754.2000,0.00104578
754.0000,0.00104202
753.8000,0.00103778
753.6000,0.00103157
753.4000,0.00103098
753.2000,0.00102954
753.0000,0.00102924
752.8000,0.00102662
752.6000,0.0010225
752.4000,0.00102202
752.2000,0.00102107
752.0000,0.00101969
751.8000,0.00101993
751.6000,0.00101916
751.4000,0.00101623
751.2000,0.00101355
751.0000,0.00101319
750.8000,0.00100931
750.6000,0.00100596
750.4000,0.00100501
750.2000,0.000996771
750.0000,0.000989429
749.8000,0.000985012
749.6000,0.000981251
749.4000,0.000983937
749.2000,0.000982146
749.0000,0.000980714
748.8000,0.000977669
748.6000,0.00097552
748.4000,0.000976714
748.2000,0.000974565
748.0000,0.00097361
747.8000,0.00097564
747.6000,0.000978326
747.4000,0.000980117
747.2000,0.000981549
747.0000,0.000984236
746.8000,0.000991578
746.6000,0.000994921
746.4000,0.000999099
746.2000,0.000997607
746.0000,0.00100059
745.8000,0.00100304
745.6000,0.0010028
745.4000,0.00100405
745.2000,0.0010019
745.0000,0.00100889
744.8000,0.00101319
744.6000,0.00101056
744.4000,0.00101032
744.2000,0.00100775
744.0000,0.00100901
743.8000,0.00101205
743.6000,0.00101187
743.4000,0.00100716
743.2000,0.00100847
743.0000,0.00100656
742.8000,0.00100507
742.6000,0.00100304
742.4000,0.00100459
742.2000,0.00100077
742.0000,0.00100017
741.8000,0.000994682
741.6000,0.000990145
741.4000,0.000987638
741.2000,0.000985429
741.0000,0.000987459
740.8000,0.000987817
740.6000,0.000983101
740.4000,0.000976654
740.2000,0.000977908
740.0000,0.00106226
739.8000,0.00108464
739.6000,0.00110374
739.4000,0.00111843
739.2000,0.0011349
739.0000,0.00115299
738.8000,0.00117185
738.6000,0.00118911
738.4000,0.00120301
738.2000,0.0012211
738.0000,0.0012334
737.8000,0.0012377
737.6000,0.00123979
737.4000,0.00123841
737.2000,0.00123346
737.0000,0.00122868
736.8000,0.00122558
736.6000,0.00122337
736.4000,0.00121991
736.2000,0.00122624
736.0000,0.0012285
735.8000,0.00122558
735.6000,0.0012291
735.4000,0.00123077
735.2000,0.00123591
735.0000,0.00123829
734.8000,0.00124456
734.6000,0.00124731
734.4000,0.00125083
734.2000,0.00125119
734.0000,0.00125554
733.8000,0.00125704
733.6000,0.00125178
733.4000,0.00124868
733.2000,0.00125346
733.0000,0.00125053
732.8000,0.00124641
732.6000,0.00124576
732.4000,0.00123764
732.2000,0.00123471
732.0000,0.00123053
731.8000,0.00122868
731.6000,0.001226
731.4000,0.00122134
731.2000,0.00122265
731.0000,0.00122677
730.8000,0.00122582
730.6000,0.00122821
730.4000,0.00124062
730.2000,0.00125501
730.0000,0.00126277
729.8000,0.00127154
729.6000,0.00129035
729.4000,0.00130205
729.2000,0.00131858
729.0000,0.00133213
728.8000,0.00134891
728.6000,0.00135511
728.4000,0.00136986
728.2000,0.0013784
728.0000,0.00138198
727.8000,0.00138371
727.6000,0.00138633
727.4000,0.00138431
727.2000,0.00137816
727.0000,0.00137828
726.8000,0.00138007
726.6000,0.00137899
726.4000,0.00138013
726.2000,0.00137684
726.0000,0.00137374
725.8000,0.00136813
725.6000,0.00135941
725.4000,0.00135667
725.2000,0.00135088
725.0000,0.00134974
724.8000,0.00134855
724.6000,0.00134807
724.4000,0.0013492
724.2000,0.00135422
724.0000,0.00135649
723.8000,0.00135309
723.6000,0.00134813
723.4000,0.00134461
723.2000,0.00133607
723.0000,0.00133279
722.8000,0.00132718
722.6000,0.00132455
722.4000,0.00132121
722.2000,0.00131607
722.0000,0.00131166
721.8000,0.00130294
721.6000,0.0012993
721.4000,0.00128969
721.2000,0.00128521
721.0000,0.00127596
720.8000,0.00127011
720.6000,0.00126438
720.4000,0.00125566
720.2000,0.00125316
720.0000,0.00124999
719.8000,0.0012479
719.6000,0.00124737
719.4000,0.00123955
719.2000,0.00123644
719.0000,0.00123471
718.8000,0.00123125
718.6000,0.0012328
718.4000,0.00123197
718.2000,0.00123358
718.0000,0.00123292
717.8000,0.00123304
717.6000,0.00123131
717.4000,0.00122886
717.2000,0.00123035
717.0000,0.00122713
716.8000,0.00122319
716.6000,0.0012183
716.4000,0.00121561
716.2000,0.001218
716.0000,0.00121925
715.8000,0.0012223
715.6000,0.00122176
715.4000,0.00122349
715.2000,0.00121668
715.0000,0.00121376
714.8000,0.00121203
714.6000,0.00121436
714.4000,0.00121495
714.2000,0.0012174
714.0000,0.00122218
713.8000,0.00122271
713.6000,0.00123041
713.4000,0.00123644
713.2000,0.00124128
713.0000,0.00124934
712.8000,0.00125304
712.6000,0.0012534
712.4000,0.00125865
712.2000,0.00125913
712.0000,0.00126736
711.8000,0.00126999
711.6000,0.00127369
711.4000,0.0012725
711.2000,0.00127363
711.0000,0.00127602
710.8000,0.00127596
710.6000,0.00128294
710.4000,0.00128271
710.2000,0.00128462
710.0000,0.00128223
709.8000,0.00127871
709.6000,0.00127847
709.4000,0.00127978
709.2000,0.00127608
709.0000,0.00127781
708.8000,0.0012759
708.6000,0.00127805
708.4000,0.00127435
708.2000,0.00127369
708.0000,0.00127632
707.8000,0.00127375
707.6000,0.00127435
707.4000,0.00126605
707.2000,0.00126169
707.0000,0.00125471
706.8000,0.00124844
706.6000,0.00124444
706.4000,0.00123883
706.2000,0.00123382
706.0000,0.00123232
705.8000,0.00122528
705.6000,0.00122122
705.4000,0.00121537
705.2000,0.00120964
705.0000,0.00120749
704.8000,0.00120355
704.6000,0.0011977
704.4000,0.00119155
704.2000,0.00119072
704.0000,0.00118833
703.8000,0.00118529
703.6000,0.00118487
703.4000,0.00118337
703.2000,0.00118254
703.0000,0.00117926
702.8000,0.00117359
702.6000,0.00117448
702.4000,0.00117669
702.2000,0.00117735
702.0000,0.00118308
701.8000,0.00117932
701.6000,0.00118093
701.4000,0.00118355
701.2000,0.001186
701.0000,0.00118511
700.8000,0.001186
700.6000,0.00119024
700.4000,0.00119352
700.2000,0.0011946
700.0000,0.00119615
699.8000,0.00119967
699.6000,0.00120445
699.4000,0.00120343
699.2000,0.00120009
699.0000,0.00119687
698.8000,0.00119191
698.6000,0.00119149
698.4000,0.00118779
698.2000,0.00118648
698.0000,0.00118105
697.8000,0.00118349
697.6000,0.00118523
697.4000,0.00118093
697.2000,0.00118266
697.0000,0.00117872
696.8000,0.00117812
696.6000,0.00117621
696.4000,0.00117317
696.2000,0.00117251
696.0000,0.00117544
695.8000,0.00117364
695.6000,0.00117347
695.4000,0.00117657
695.2000,0.00117376
695.0000,0.00116768
694.8000,0.00116857
694.6000,0.00116463
694.4000,0.00115986
694.2000,0.00115771
694.0000,0.00115556
693.8000,0.00115645
693.6000,0.00115609
693.4000,0.00115723
693.2000,0.00115669
693.0000,0.00115699
692.8000,0.00115198
692.6000,0.00115598
692.4000,0.00115562
692.2000,0.00115592
692.0000,0.00115311
691.8000,0.00115818
691.6000,0.00115932
691.4000,0.00116069
691.2000,0.00116183
691.0000,0.00116326
690.8000,0.00116003
690.6000,0.00116093
690.4000,0.00115902
690.2000,0.00115407
690.0000,0.00115168
689.8000,0.00114977
689.6000,0.00114977
689.4000,0.00114714
689.2000,0.00114547
689.0000,0.00114266
688.8000,0.00114225
688.6000,0.00114051
688.4000,0.00113878
688.2000,0.00113269
688.0000,0.00113096
687.8000,0.00113299
687.6000,0.00113216
687.4000,0.00113353
687.2000,0.0011346
687.0000,0.00113687
686.8000,0.00113777
686.6000,0.00113634
686.4000,0.00113634
686.2000,0.00113765
686.0000,0.00114123
685.8000,0.00114302
685.6000,0.0011466
685.4000,0.00114422
685.2000,0.00114732
685.0000,0.00115412
684.8000,0.00115156
684.6000,0.00114983
684.4000,0.00115341
684.2000,0.00115383
684.0000,0.00115454
683.8000,0.0011546
683.6000,0.00115592
683.4000,0.00115556
683.2000,0.00115317
683.0000,0.00114905
682.8000,0.00114714
682.6000,0.00114827
682.4000,0.00114851
682.2000,0.00115126
682.0000,0.00115001
681.8000,0.00114744
681.6000,0.00115013
681.4000,0.00115001
681.2000,0.00114804
681.0000,0.0011435
680.8000,0.00114338
680.6000,0.00114469
680.4000,0.00114875
680.2000,0.00114798
680.0000,0.00114995
679.8000,0.00115633
679.6000,0.00115926
679.4000,0.00115717
679.2000,0.00115651
679.0000,0.00115502
678.8000,0.00115395
678.6000,0.00115771
678.4000,0.00115753
678.2000,0.00115753
678.0000,0.001158
677.8000,0.00115562
677.6000,0.00115412
677.4000,0.00114762
677.2000,0.00114171
677.0000,0.00114278
676.8000,0.00114063
676.6000,0.00113675
676.4000,0.00113061
676.2000,0.00112887
676.0000,0.00112977
675.8000,0.0011281
675.6000,0.00112487
675.4000,0.00111831
675.2000,0.00111568
675.0000,0.00111329
674.8000,0.00111156
674.6000,0.00111353
674.4000,0.00111473
674.2000,0.00111956
674.0000,0.00112093
673.8000,0.00112117
673.6000,0.00112273
673.4000,0.00112255
673.2000,0.00112499
673.0000,0.00112702
672.8000,0.00112816
672.6000,0.00112989
672.4000,0.00112953
672.2000,0.00113001
672.0000,0.00112899
671.8000,0.00113234
671.6000,0.00113078
671.4000,0.00112864
671.2000,0.00112255
671.0000,0.00111914
670.8000,0.0011164
670.6000,0.00111431
670.4000,0.00111258
670.2000,0.00110959
670.0000,0.0011075
669.8000,0.00110231
669.6000,0.00110088
669.4000,0.00109849
669.2000,0.00109706
669.0000,0.00109664
668.8000,0.00109736
668.6000,0.0010936
668.4000,0.00109407
668.2000,0.00109395
668.0000,0.00109395
667.8000,0.00109228
667.6000,0.00108697
667.4000,0.00108219
667.2000,0.00108136
667.0000,0.00108052
666.8000,0.00107503
666.6000,0.0010773
666.4000,0.0010736
666.2000,0.00107467
666.0000,0.00107258
665.8000,0.00106882
665.6000,0.00106775
665.4000,0.00106715
665.2000,0.00106434
665.0000,0.00106238
664.8000,0.00106064
664.6000,0.00105629
664.4000,0.00105635
664.2000,0.00105635
664.0000,0.00104757
663.8000,0.00104453
663.6000,0.00104518
663.4000,0.00103927
663.2000,0.00103557
663.0000,0.00102924
662.8000,0.00102793
662.6000,0.00102513
662.4000,0.0010225
662.2000,0.00101683
662.0000,0.00101134
661.8000,0.00100787
661.6000,0.00100483
661.4000,0.00100513
661.2000,0.00100423
661.0000,0.00100035
660.8000,0.00100214
660.6000,0.00100041
660.4000,0.00099695
660.2000,0.000992354
660.0000,0.000989071
659.8000,0.00098919
659.6000,0.000986325
659.4000,0.000985549
659.2000,0.000985608
659.0000,0.000981072
658.8000,0.000978863
658.6000,0.000974088
658.4000,0.000971939
658.2000,0.000969551
658.0000,0.000968954
657.8000,0.000969849
657.6000,0.000969849
657.4000,0.000967044
657.2000,0.00096573
657.0000,0.000963581
656.8000,0.000960119
656.6000,0.000958149
656.4000,0.000958149
656.2000,0.000954448
656.0000,0.000948777
655.8000,0.000947225
655.6000,0.000942868
655.4000,0.000944002
655.2000,0.00094233
655.0000,0.000940599
654.8000,0.000939525
654.6000,0.000938032
654.4000,0.000938271
654.2000,0.00094048
654.0000,0.000939167
653.8000,0.000943882
653.6000,0.000946748
653.4000,0.000943524
653.2000,0.00094639
653.0000,0.00094824
652.8000,0.000948897
652.6000,0.000950031
652.4000,0.000954747
652.2000,0.000953612
652.0000,0.000952777
651.8000,0.000949971
651.6000,0.000945136
651.4000,0.000942569
651.2000,0.000940778
651.0000,0.000934033
650.8000,0.000936242
650.6000,0.00093063
650.4000,0.000927765
650.2000,0.000927168
650.0000,0.000921676
649.8000,0.000915349
649.6000,0.000910334
649.4000,0.000910573
649.2000,0.000906872
649.0000,0.00090538
648.8000,0.000905618
648.6000,0.000905917
648.4000,0.000906812
648.2000,0.000906395
648.0000,0.000904484
647.8000,0.000904066
647.6000,0.000900783
647.4000,0.000899052
647.2000,0.000901798
647.0000,0.000904007
646.8000,0.000903828
646.6000,0.000910513
646.4000,0.000916065
646.2000,0.000918095
646.0000,0.000922333
645.8000,0.000928541
645.6000,0.000931466
645.4000,0.000937256
645.2000,0.000940838
645.0000,0.000943524
644.8000,0.00094639
644.6000,0.000951344
644.4000,0.00095206
644.2000,0.000955224
644.0000,0.000956537
643.8000,0.000955463
643.6000,0.000958149
643.4000,0.000956896
643.2000,0.000955821
643.0000,0.000955403
642.8000,0.000957254
642.6000,0.000951702
642.4000,0.000946688
642.2000,0.000940539
642.0000,0.000933973
641.8000,0.000932242
641.6000,0.000930571
641.4000,0.000930809
641.2000,0.00093457
641.0000,0.000934152
640.8000,0.000929854
640.6000,0.000930988
640.4000,0.000931227
640.2000,0.000930391
640.0000,0.00093069
639.8000,0.000928481
639.6000,0.000925437
639.4000,0.000927944
639.2000,0.000933734
639.0000,0.000939943
638.8000,0.000945912
638.6000,0.000947106
638.4000,0.000953075
638.2000,0.000951583
638.0000,0.000950508
637.8000,0.000952598
637.6000,0.000955045
637.4000,0.000957493
637.2000,0.000955105
637.0000,0.000956657
636.8000,0.000958328
636.6000,0.000958149
636.4000,0.000959045
636.2000,0.000958627
636.0000,0.000954926
635.8000,0.000952777
635.6000,0.000949434
635.4000,0.000948359
635.2000,0.000944658
635.0000,0.000944061
634.8000,0.000940838
634.6000,0.000937973
634.4000,0.000941733
634.2000,0.000935883
634.0000,0.000936779
633.8000,0.000931944
633.6000,0.00092872
633.4000,0.000929377
633.2000,0.000926094
633.0000,0.000921258
632.8000,0.000919109
632.6000,0.000915408
632.4000,0.000917438
632.2000,0.000914811
632.0000,0.000914632
631.8000,0.000913379
631.6000,0.00091117
631.4000,0.000909678
631.2000,0.000905738
631.0000,0.000909976
630.8000,0.000911588
630.6000,0.000916483
630.4000,0.000918333
630.2000,0.000919647
630.0000,0.000920602
629.8000,0.000925974
629.6000,0.000927108
629.4000,0.000932003
629.2000,0.000934331
629.0000,0.000938092
628.8000,0.000939644
628.6000,0.000939943
628.4000,0.000946867
628.2000,0.000949315
628.0000,0.000948897
627.8000,0.000949374
627.6000,0.000945673
627.4000,0.000945912
627.2000,0.000947524
627.0000,0.000946091
626.8000,0.000947225
626.6000,0.000946807
626.4000,0.000946151
626.2000,0.000940719
626.0000,0.000938928
625.8000,0.000939704
625.6000,0.000936182
625.4000,0.000935346
625.2000,0.000932899
625.0000,0.000934331
624.8000,0.000933018
624.6000,0.00093463
624.4000,0.000936062
624.2000,0.000932779
624.0000,0.000929675
623.8000,0.000925974
623.6000,0.000926452
623.4000,0.000930093
623.2000,0.000930511
623.0000,0.000935883
622.8000,0.000939286
622.6000,0.000937555
622.4000,0.000938928
622.2000,0.000941912
622.0000,0.000943942
621.8000,0.000947524
621.6000,0.000951105
621.4000,0.000950747
621.2000,0.000953195
621.0000,0.000960119
620.8000,0.000964835
620.6000,0.000970625
620.4000,0.000971163
620.2000,0.000969193
620.0000,0.000973431
619.8000,0.000973491
619.6000,0.000975102
619.4000,0.000979758
619.2000,0.000982266
619.0000,0.000983221
618.8000,0.000984355
618.6000,0.000980833
618.4000,0.000982922
618.2000,0.00098716
618.0000,0.000995876
617.8000,0.000996353
617.6000,0.00100017
617.4000,0.00100399
617.2000,0.00100781
617.0000,0.00101169
616.8000,0.00101486
616.6000,0.00101557
616.4000,0.00101587
616.2000,0.00101528
616.0000,0.00101552
615.8000,0.00101689
615.6000,0.00101695
615.4000,0.00101987
615.2000,0.00102101
615.0000,0.00101928
614.8000,0.00101002
614.6000,0.00100453
614.4000,0.0010019
614.2000,0.000997309
614.0000,0.000997428
613.8000,0.000993309
613.6000,0.000988653
613.4000,0.000989847
613.2000,0.000988116
613.0000,0.000987459
612.8000,0.000987698
612.6000,0.000986205
612.4000,0.000985131
612.2000,0.000988116
612.0000,0.000986146
611.8000,0.000982564
611.6000,0.00098531
611.4000,0.00098931
611.2000,0.000988056
611.0000,0.000988772
610.8000,0.00098328
610.6000,0.00098131
610.4000,0.000981072
610.2000,0.00097558
610.0000,0.000973192
609.8000,0.000972595
609.6000,0.000970804
609.4000,0.000971998
609.2000,0.000973132
609.0000,0.00096961
608.8000,0.000973013
608.6000,0.00097552
608.4000,0.000974864
608.2000,0.000971163
608.0000,0.000971998
607.8000,0.000973013
607.6000,0.000975461
607.4000,0.000979699
607.2000,0.000984653
607.0000,0.00098913
606.8000,0.000993846
606.6000,0.000994383
606.4000,0.000995756
606.2000,0.000998443
606.0000,0.000998741
605.8000,0.000999219
605.6000,0.000993011
605.4000,0.000996174
605.2000,0.000997428
605.0000,0.0010022
604.8000,0.00100298
604.6000,0.00100525
604.4000,0.00100907
604.2000,0.00100961
604.0000,0.00100805
603.8000,0.00101146
603.6000,0.00100859
603.4000,0.00101289
603.2000,0.00101516
603.0000,0.00101677
602.8000,0.00101904
602.6000,0.00102148
602.4000,0.00102447
602.2000,0.0010225
602.0000,0.00102256
601.8000,0.00102441
601.6000,0.00103181
601.4000,0.00103366
601.2000,0.00103408
601.0000,0.00103193
600.8000,0.00102954
600.6000,0.00103068
600.4000,0.00103026
600.2000,0.00102984
600.0000,0.00102835
599.8000,0.00102256
599.6000,0.00101934
599.4000,0.00101599
599.2000,0.00101695
599.0000,0.00101743
598.8000,0.00101319
598.6000,0.00100907
598.4000,0.00100149
598.2000,0.000999278
598.0000,0.00100071
597.8000,0.00100232
597.6000,0.00100441
597.4000,0.000998861
597.2000,0.000998861
597.0000,0.000997129
596.8000,0.000996533
596.6000,0.000997309
596.4000,0.00100226
596.2000,0.00100423
596.0000,0.00100358
595.8000,0.00100119
595.6000,0.00100859
595.4000,0.00100865
595.2000,0.00101068
595.0000,0.00101235
594.8000,0.00100949
594.6000,0.00100841
594.4000,0.0010102
594.2000,0.00101366
594.0000,0.00101211
593.8000,0.00101349
593.6000,0.00101313
593.4000,0.00101426
593.2000,0.00101366
593.0000,0.00101193
592.8000,0.00101462
592.6000,0.0010142
592.4000,0.00101271
592.2000,0.00101295
592.0000,0.00101122
591.8000,0.00101152
591.6000,0.00101044
591.4000,0.00101116
591.2000,0.0010105
591.0000,0.00100811
590.8000,0.00100859
590.6000,0.00100823
590.4000,0.00101002
590.2000,0.00100943
590.0000,0.00100877
589.8000,0.00100901
589.6000,0.00100441
589.4000,0.00100399
589.2000,0.00100047
589.0000,0.0010037
588.8000,0.00100286
588.6000,0.00100561
588.4000,0.00101014
588.2000,0.0010145
588.0000,0.00101504
587.8000,0.00101844
587.6000,0.00102542
587.4000,0.00102172
587.2000,0.00102286
587.0000,0.00102739
586.8000,0.0010259
586.6000,0.00102835
586.4000,0.00103718
586.2000,0.00104393
586.0000,0.00104757
585.8000,0.00104859
585.6000,0.00104859
585.4000,0.00104548
585.2000,0.00104262
585.0000,0.00104184
584.8000,0.00104387
584.6000,0.00104369
584.4000,0.0010453
584.2000,0.00105276
584.0000,0.00105503
583.8000,0.00105461
583.6000,0.00105963
583.4000,0.00105814
583.2000,0.00105324
583.0000,0.00105079
582.8000,0.00104865
582.6000,0.00104823
582.4000,0.00105193
582.2000,0.00105193
582.0000,0.00105617
581.8000,0.00105891
581.6000,0.00105766
581.4000,0.00106333
581.2000,0.0010613
581.0000,0.00105832
580.8000,0.00106023
580.6000,0.00106321
580.4000,0.00106333
580.2000,0.00106637
580.0000,0.00107187
579.8000,0.00107724
579.6000,0.00108225
579.4000,0.00108685
579.2000,0.00108954
579.0000,0.00109545
578.8000,0.00109706
578.6000,0.00109354
578.4000,0.00109509
578.2000,0.00109652
578.0000,0.00109389
577.8000,0.00109646
577.6000,0.00109622
577.4000,0.00109694
577.2000,0.00109568
577.0000,0.00109956
576.8000,0.00109801
576.6000,0.00109628
576.4000,0.00109658
576.2000,0.00109771
576.0000,0.00109915
575.8000,0.00110052
575.6000,0.00110285
575.4000,0.0011081
575.2000,0.00111377
575.0000,0.0011118
574.8000,0.00111968
574.6000,0.00111711
574.4000,0.00111825
574.2000,0.00111789
574.0000,0.00112237
573.8000,0.00112165
573.6000,0.00112153
573.4000,0.00112386
573.2000,0.0011269
573.0000,0.00112607
572.8000,0.00112553
572.6000,0.00112834
572.4000,0.00112977
572.2000,0.00112941
572.0000,0.00112941
571.8000,0.00113013
571.6000,0.00113269
571.4000,0.00113837
571.2000,0.00114111
571.0000,0.00114541
570.8000,0.0011475
570.6000,0.00114774
570.4000,0.0011521
570.2000,0.00114989
570.0000,0.00114947
569.8000,0.00115317
569.6000,0.00115747
569.4000,0.00115568
569.2000,0.00115717
569.0000,0.0011635
568.8000,0.00116738
568.6000,0.00117036
568.4000,0.00117108
568.2000,0.00117567
568.0000,0.00118105
567.8000,0.00118403
567.6000,0.00118612
567.4000,0.00119179
567.2000,0.00119502
567.0000,0.00119782
566.8000,0.00120534
566.6000,0.00120749
566.4000,0.00121012
566.2000,0.00121268
566.0000,0.00121054
565.8000,0.00121197
565.6000,0.00121257
565.4000,0.00121692
565.2000,0.00121615
565.0000,0.00121877
564.8000,0.00122086
564.6000,0.00122092
564.4000,0.00122438
564.2000,0.00123006
564.0000,0.00123173
563.8000,0.00123788
563.6000,0.00123477
563.4000,0.00123483
563.2000,0.00123489
563.0000,0.00123967
562.8000,0.00124964
562.6000,0.00125399
562.4000,0.00125381
562.2000,0.00125483
562.0000,0.00125668
561.8000,0.00125471
561.6000,0.00125226
561.4000,0.00125572
561.2000,0.00125328
561.0000,0.00125334
560.8000,0.00125543
560.6000,0.00124761
560.4000,0.00124946
560.2000,0.00124749
560.0000,0.00124289
559.8000,0.00123704
559.6000,0.00122635
559.4000,0.00122355
559.2000,0.00122773
559.0000,0.00123023
558.8000,0.0012365
558.6000,0.00124176
558.4000,0.00125023
558.2000,0.00125805
558.0000,0.00126695
557.8000,0.00127566
557.6000,0.0012873
557.4000,0.00130449
557.2000,0.00131816
557.0000,0.00133171
556.8000,0.00135171
556.6000,0.00137123
556.4000,0.00139159
556.2000,0.00140633
556.0000,0.00142251
555.8000,0.0014431
555.6000,0.00145791
555.4000,0.00147582
555.2000,0.00148919
555.0000,0.00150101
554.8000,0.00151175
554.6000,0.00152136
554.4000,0.0015296
554.2000,0.00153814
554.0000,0.00154596
553.8000,0.00155646
553.6000,0.00156339
553.4000,0.00156894
553.2000,0.00157109
553.0000,0.00157771
552.8000,0.00158309
552.6000,0.00158565
552.4000,0.00159574
552.2000,0.0015995
552.0000,0.00160416
551.8000,0.00161377
551.6000,0.00162702
551.4000,0.00163347
551.2000,0.00164087
551.0000,0.00165544
550.8000,0.00166737
550.6000,0.00168015
550.4000,0.00168994
550.2000,0.00170044
550.0000,0.00171525
549.8000,0.00172778
549.6000,0.00174301
549.4000,0.00175674
549.2000,0.00176665
549.0000,0.00178038
548.8000,0.00179548
548.6000,0.00180306
548.4000,0.00181183
548.2000,0.00182335
548.0000,0.00184067
547.8000,0.00185284
547.6000,0.00186813
547.4000,0.00188215
547.2000,0.00190066
547.0000,0.00191875
546.8000,0.00193922
546.6000,0.00195367
546.4000,0.00196495
546.2000,0.00198232
546.0000,0.00199492
545.8000,0.00201414
545.6000,0.002033
545.4000,0.00205294
545.2000,0.00207347
545.0000,0.00209174
544.8000,0.00211335
544.6000,0.00212827
544.4000,0.002146
544.2000,0.0021614
544.0000,0.00217955
543.8000,0.00219794
543.6000,0.00221178
543.4000,0.00222814
543.2000,0.00225053
543.0000,0.00226408
542.8000,0.00228497
542.6000,0.00230347
542.4000,0.00231995
542.2000,0.00234036
542.0000,0.00235803
541.8000,0.00238132
541.6000,0.00239397
541.4000,0.00241731
541.2000,0.00243629
541.0000,0.00245969
540.8000,0.00248077
540.6000,0.0024976
540.4000,0.00252625
540.2000,0.00255288
540.0000,0.00257335
539.8000,0.00259723
539.6000,0.00262337
539.4000,0.00264552
539.2000,0.00267322
539.0000,0.0026971
538.8000,0.00272462
538.6000,0.00274491
538.4000,0.00277148
538.2000,0.00279177
538.0000,0.00281977
537.8000,0.00284341
537.6000,0.00286645
537.4000,0.00289642
537.2000,0.00291719
537.0000,0.00294005
536.8000,0.0029647
536.6000,0.00298852
536.4000,0.00301252
536.2000,0.00303861
536.0000,0.00305932
535.8000,0.00308445
535.6000,0.00310934
535.4000,0.00314152
535.2000,0.0031716
535.0000,0.00320271
534.8000,0.00323327
534.6000,0.00326795
534.4000,0.00330084
534.2000,0.00333326
534.0000,0.00337068
533.8000,0.00341134
533.6000,0.00345073
533.4000,0.00348989
533.2000,0.0035275
533.0000,0.00357048
532.8000,0.00361406
532.6000,0.00365531
532.4000,0.00370151
532.2000,0.00374252
532.0000,0.0037815
531.8000,0.0038289
531.6000,0.00387313
531.4000,0.00391205
531.2000,0.00395789
531.0000,0.00400464
530.8000,0.00404696
530.6000,0.00408415
530.4000,0.00412856
530.2000,0.00417291
530.0000,0.00421631
529.8000,0.00426048
529.6000,0.0043012
529.4000,0.00434919
529.2000,0.00439748
529.0000,0.00444685
528.8000,0.00449753
528.6000,0.0045423
528.4000,0.00458737
528.2000,0.00464199
528.0000,0.00468765
527.8000,0.00473744
527.6000,0.00478675
527.4000,0.0048434
527.2000,0.00489276
527.0000,0.00494685
526.8000,0.00499944
526.6000,0.00505698
526.4000,0.00511321
526.2000,0.00516789
526.0000,0.00521386
525.8000,0.00526639
525.6000,0.00532071
525.4000,0.00537933
525.2000,0.00543765
525.0000,0.00549376
524.8000,0.0055568
524.6000,0.00561297
524.4000,0.00567422
524.2000,0.00573337
524.0000,0.00579623
523.8000,0.00585808
523.6000,0.00592529
523.4000,0.00598308
523.2000,0.00604772
523.0000,0.00611106
522.8000,0.00617899
522.6000,0.0062517
522.4000,0.00631754
522.2000,0.00638947
522.0000,0.00645824
521.8000,0.00653238
521.6000,0.00660401
521.4000,0.00667779
521.2000,0.00675044
521.0000,0.00682619
520.8000,0.00690577
520.6000,0.00698516
520.4000,0.00705966
520.2000,0.0071406
520.0000,0.00722352
519.8000,0.00730613
519.6000,0.00738971
519.4000,0.00747071
519.2000,0.0075593
519.0000,0.00764179
518.8000,0.00772978
518.6000,0.00781085
518.4000,0.00789484
518.2000,0.00798444
518.0000,0.00807756
517.8000,0.00817086
517.6000,0.0082573
517.4000,0.00835024
517.2000,0.00844044
517.0000,0.008527
516.8000,0.00861916
516.6000,0.00871282
516.4000,0.00880965
516.2000,0.0089057
516.0000,0.00900037
515.8000,0.00909588
515.6000,0.00919688
515.4000,0.00930105
515.2000,0.00940725
515.0000,0.00951052
514.8000,0.00961617
514.6000,0.00971527
514.4000,0.00982492
514.2000,0.00992861
514.0000,0.0100396
513.8000,0.0101514
513.6000,0.0102606
513.4000,0.0103667
513.2000,0.0104758
513.0000,0.0105856
512.8000,0.0106977
512.6000,0.0108095
512.4000,0.0109205
512.2000,0.0110312
512.0000,0.0111449
511.8000,0.0112613
511.6000,0.0113718
511.4000,0.0114901
511.2000,0.0116013
511.0000,0.011714
510.8000,0.0118327
510.6000,0.0119564
510.4000,0.0120752
510.2000,0.0122022
510.0000,0.0123303
509.8000,0.0124526
509.6000,0.0125824
509.4000,0.0127129
509.2000,0.0128363
509.0000,0.0129648
508.8000,0.0130965
508.6000,0.0132285
508.4000,0.0133617
508.2000,0.0135011
508.0000,0.0136393
507.8000,0.0137835
507.6000,0.0139242
507.4000,0.0140666
507.2000,0.0142153
507.0000,0.0143613
506.8000,0.0145052
506.6000,0.0146563
506.4000,0.0148039
506.2000,0.0149487
506.0000,0.0151009
505.8000,0.0152586
505.6000,0.0154096
505.4000,0.0155646
505.2000,0.0157234
505.0000,0.0158799
504.8000,0.0160385
504.6000,0.016196
504.4000,0.0163565
504.2000,0.0165139
504.0000,0.0166728
503.8000,0.0168343
503.6000,0.0170012
503.4000,0.017166
503.2000,0.0173334
503.0000,0.0175081
502.8000,0.0176793
502.6000,0.0178462
502.4000,0.0180192
502.2000,0.0181931
502.0000,0.0183696
501.8000,0.0185459
501.6000,0.0187261
501.4000,0.0189036
501.2000,0.0190848
501.0000,0.0192715
500.8000,0.0194598
500.6000,0.0196398
500.4000,0.0198208
500.2000,0.0200096
500.0000,0.0204597
499.8000,0.0206493
499.6000,0.0208463
499.4000,0.0210364
499.2000,0.0212386
499.0000,0.0214335
498.8000,0.0216246
498.6000,0.0218231
498.4000,0.0220177
498.2000,0.0222146
498.0000,0.0224124
497.8000,0.0226156
497.6000,0.0228215
497.4000,0.0230177
497.2000,0.023228
497.0000,0.0234273
496.8000,0.0236342
496.6000,0.0238457
496.4000,0.0240564
496.2000,0.0242738
496.0000,0.0244837
495.8000,0.0246946
495.6000,0.0249181
495.4000,0.0251362
495.2000,0.0253533
495.0000,0.0255715
494.8000,0.0257952
494.6000,0.0260215
494.4000,0.0262471
494.2000,0.0264778
494.0000,0.0266969
493.8000,0.0269255
493.6000,0.0271613
493.4000,0.0273934
493.2000,0.0276255
493.0000,0.0278623
492.8000,0.0281095
492.6000,0.0283525
492.4000,0.0285847
492.2000,0.0288294
492.0000,0.0290712
491.8000,0.0293176
491.6000,0.0295625
491.4000,0.0298073
491.2000,0.0300509
491.0000,0.0303005
490.8000,0.0305473
490.6000,0.0307989
490.4000,0.0310352
490.2000,0.0312877
490.0000,0.0315386
489.8000,0.0317865
489.6000,0.0320358
489.4000,0.0322982
489.2000,0.03256
489.0000,0.0328193
488.8000,0.0330854
488.6000,0.0333532
488.4000,0.0336224
488.2000,0.0338883
488.0000,0.0341539
487.8000,0.0344244
487.6000,0.0347065
487.4000,0.0349823
487.2000,0.0352654
487.0000,0.0355405
486.8000,0.0358201
486.6000,0.0361019
486.4000,0.0363823
486.2000,0.0366548
486.0000,0.036939
485.8000,0.0372299
485.6000,0.0375089
485.4000,0.0377881
485.2000,0.0380717
485.0000,0.0383633
484.8000,0.0386516
484.6000,0.0389378
484.4000,0.0392235
484.2000,0.0395095
484.0000,0.0397996
483.8000,0.0400955
483.6000,0.0403937
483.4000,0.0406929
483.2000,0.0409867
483.0000,0.0412873
482.8000,0.0415848
482.6000,0.0418738
482.4000,0.0421715
482.2000,0.0424763
482.0000,0.0427787
481.8000,0.0430809
481.6000,0.0433847
481.4000,0.0436928
481.2000,0.0439913
481.0000,0.0443022
480.8000,0.0446021
480.6000,0.0448977
480.4000,0.0452032
480.2000,0.0455016
480.0000,0.0458072
479.8000,0.0461143
479.6000,0.0464177
479.4000,0.0467253
479.2000,0.0470363
479.0000,0.0473385
478.8000,0.0476437
478.6000,0.0479515
478.4000,0.0482664
478.2000,0.0485821
478.0000,0.0489081
477.8000,0.0492248
477.6000,0.0495484
477.4000,0.0498786
477.2000,0.050198
477.0000,0.0505194
476.8000,0.0508436
476.6000,0.0511672
476.4000,0.0514994
476.2000,0.0518158
476.0000,0.0521429
475.8000,0.0524674
475.6000,0.0528005
475.4000,0.0531282
475.2000,0.0534496
475.0000,0.053764
474.8000,0.0540706
474.6000,0.0543876
474.4000,0.0547153
474.2000,0.0550365
474.0000,0.0553557
473.8000,0.0556845
473.6000,0.0560128
473.4000,0.0563351
473.2000,0.0566578
473.0000,0.0569942
472.8000,0.0573223
472.6000,0.0576577
472.4000,0.0579782
472.2000,0.058305
472.0000,0.0586313
471.8000,0.058966
471.6000,0.0593171
471.4000,0.0596566
471.2000,0.06
471.0000,0.0603283
470.8000,0.0606694
470.6000,0.0610039
470.4000,0.0613399
470.2000,0.0616754
470.0000,0.0620033
469.8000,0.0623415
469.6000,0.0626761
469.4000,0.0630107
469.2000,0.0633438
469.0000,0.0636863
468.8000,0.0640277
468.6000,0.0643612
468.4000,0.064687
468.2000,0.0650216
468.0000,0.0653401
467.8000,0.0656792
467.6000,0.0660092
467.4000,0.0663366
467.2000,0.0666572
467.0000,0.0669916
466.8000,0.0673351
466.6000,0.0676605
466.4000,0.0679836
466.2000,0.0683067
466.0000,0.0686353
465.8000,0.0689605
465.6000,0.0692829
465.4000,0.0696148
465.2000,0.0699355
465.0000,0.0702564
464.8000,0.0705808
464.6000,0.0709039
464.4000,0.0712229
464.2000,0.071546
464.0000,0.0718683
463.8000,0.0721846
463.6000,0.0724945
463.4000,0.0728167
463.2000,0.0731357
463.0000,0.0734596
462.8000,0.0737789
462.6000,0.0740914
462.4000,0.0744145
462.2000,0.0747199
462.0000,0.075037
461.8000,0.0753562
461.6000,0.0756688
461.4000,0.0759839
461.2000,0.0763038
461.0000,0.0766166
460.8000,0.0769203
460.6000,0.0772323
460.4000,0.07754
460.2000,0.0778365
460.0000,0.0781418
459.8000,0.078446
459.6000,0.0787554
459.4000,0.0790527
459.2000,0.0793517
459.0000,0.0796599
458.8000,0.0799578
458.6000,0.0802487
458.4000,0.0805414
458.2000,0.0808246
458.0000,0.0811157
457.8000,0.0814075
457.6000,0.0816996
457.4000,0.0819858
457.2000,0.0822691
457.0000,0.0825462
456.8000,0.0828267
456.6000,0.083097
456.4000,0.0833753
456.2000,0.0836475
456.0000,0.0839194
455.8000,0.0841886
455.6000,0.084455
455.4000,0.0847286
455.2000,0.0850036
455.0000,0.0852787
454.8000,0.0855384
454.6000,0.085794
454.4000,0.0860613
454.2000,0.0863257
454.0000,0.08659
453.8000,0.0868628
453.6000,0.0871195
453.4000,0.08738
453.2000,0.0876307
453.0000,0.0878962
452.8000,0.0881567
452.6000,0.0884189
452.4000,0.0886696
452.2000,0.0889127
452.0000,0.08916
451.8000,0.0893979
451.6000,0.0896412
451.4000,0.0898821
451.2000,0.0901174
451.0000,0.0903435
450.8000,0.0905716
450.6000,0.090796
450.4000,0.0910328
450.2000,0.0912503
450.0000,0.091464
449.8000,0.0916813
449.6000,0.0918949
449.4000,0.092099
449.2000,0.0923109
449.0000,0.0925207
448.8000,0.0927188
448.6000,0.0929252
448.4000,0.0931322
448.2000,0.0933271
448.0000,0.0935295
447.8000,0.0937373
447.6000,0.0939371
447.4000,0.0941308
447.2000,0.094322
447.0000,0.0945266
446.8000,0.09472
446.6000,0.0949006
446.4000,0.0950821
446.2000,0.0952545
446.0000,0.0954332
445.8000,0.0956123
445.6000,0.0957877
445.4000,0.0959633
445.2000,0.0961294
445.0000,0.0963133
444.8000,0.0964692
444.6000,0.0966336
444.4000,0.0967864
444.2000,0.0969464
444.0000,0.0970912
443.8000,0.0972354
443.6000,0.0973886
443.4000,0.0975387
443.2000,0.0976779
443.0000,0.097826
442.8000,0.0979644
442.6000,0.0980995
442.4000,0.0982411
442.2000,0.0983729
442.0000,0.0984957
441.8000,0.0986193
441.6000,0.0987386
441.4000,0.0988556
441.2000,0.0989755
441.0000,0.0990977
440.8000,0.0992186
440.6000,0.0993234
440.4000,0.0994188
440.2000,0.099523
440.0000,0.0996332
439.8000,0.0997343
439.6000,0.0998491
439.4000,0.0999424
439.2000,0.100028
439.0000,0.10011
438.8000,0.100198
438.6000,0.100287
438.4000,0.10038
438.2000,0.10045
438.0000,0.10053
437.8000,0.100601
437.6000,0.100675
437.4000,0.100757
437.2000,0.100837
437.0000,0.100893
436.8000,0.100951
436.6000,0.101021
436.4000,0.101072
436.2000,0.101134
436.0000,0.101182
435.8000,0.101239
435.6000,0.101287
435.4000,0.101325
435.2000,0.101366
435.0000,0.101416
434.8000,0.10145
434.6000,0.101485
434.4000,0.101522
434.2000,0.101544
434.0000,0.101565
433.8000,0.101612
433.6000,0.101642
433.4000,0.101643
433.2000,0.101652
433.0000,0.101665
432.8000,0.101683
432.6000,0.101694
432.4000,0.101724
432.2000,0.101744
432.0000,0.101759
431.8000,0.101757
431.6000,0.101774
431.4000,0.101771
431.2000,0.101759
431.0000,0.101769
430.8000,0.101765
430.6000,0.101735
430.4000,0.101714
430.2000,0.101718
430.0000,0.1017
429.8000,0.10168
429.6000,0.10167
429.4000,0.101652
429.2000,0.101605
429.0000,0.101574
428.8000,0.101543
428.6000,0.101509
428.4000,0.101478
428.2000,0.101452
428.0000,0.101418
427.8000,0.101386
427.6000,0.101362
427.4000,0.101336
427.2000,0.101311
427.0000,0.10128
426.8000,0.101248
426.6000,0.101221
426.4000,0.101173
426.2000,0.101116
426.0000,0.101101
425.8000,0.101051
425.6000,0.101008
425.4000,0.100987
425.2000,0.10095
425.0000,0.1009
424.8000,0.100867
424.6000,0.100818
424.4000,0.100785
424.2000,0.100756
424.0000,0.100706
423.8000,0.100657
423.6000,0.100636
423.4000,0.100593
423.2000,0.100564
423.0000,0.100532
422.8000,0.100479
422.6000,0.100434
422.4000,0.100404
422.2000,0.100366
422.0000,0.100308
421.8000,0.100276
421.6000,0.100236
421.4000,0.100212
421.2000,0.10017
421.0000,0.100182
420.8000,0.100249
420.6000,0.100343
420.4000,0.100398
420.2000,0.100429
420.0000,0.100469
419.8000,0.100538
419.6000,0.100629
419.4000,0.100739
419.2000,0.10082
419.0000,0.10092
418.8000,0.101051
418.6000,0.101174
418.4000,0.101196
418.2000,0.10117
418.0000,0.101144
417.8000,0.101039
417.6000,0.100909
417.4000,0.100715
417.2000,0.10056
417.0000,0.100476
416.8000,0.100374
416.6000,0.100274
416.4000,0.100161
416.2000,0.100017
416.0000,0.0999122
415.8000,0.0998052
415.6000,0.0996981
415.4000,0.0995655
415.2000,0.0995594
415.0000,0.0996057
414.8000,0.0996352
414.6000,0.0997329
414.4000,0.0997985
414.2000,0.0999127
414.0000,0.10002
413.8000,0.10011
413.6000,0.100201
413.4000,0.100326
413.2000,0.100416
413.0000,0.100534
412.8000,0.100651
412.6000,0.100752
412.4000,0.100873
412.2000,0.101031
412.0000,0.101216
411.8000,0.101405
411.6000,0.101657
411.4000,0.101858
411.2000,0.102104
411.0000,0.102369
410.8000,0.102642
410.6000,0.102931
410.4000,0.103259
410.2000,0.10355
410.0000,0.10386
409.8000,0.104229
409.6000,0.104623
409.4000,0.104995
409.2000,0.105406
409.0000,0.105831
408.8000,0.106257
408.6000,0.106692
408.4000,0.107131
408.2000,0.10764
408.0000,0.108117
407.8000,0.108628
407.6000,0.109193
407.4000,0.109766
407.2000,0.110363
407.0000,0.110933
406.8000,0.111575
406.6000,0.112214
406.4000,0.112837
406.2000,0.113548
406.0000,0.114254
405.8000,0.114982
405.6000,0.115711
405.4000,0.116514
405.2000,0.117324
405.0000,0.118151
404.8000,0.11907
404.6000,0.119956
404.4000,0.120829
404.2000,0.121774
404.0000,0.122712
403.8000,0.123766
403.6000,0.124829
403.4000,0.125881
403.2000,0.12702
403.0000,0.128226
402.8000,0.129413
402.6000,0.13066
402.4000,0.131948
402.2000,0.13323
402.0000,0.13454
401.8000,0.135878
401.6000,0.137345
401.4000,0.138797
401.2000,0.140316
401.0000,0.141889
400.8000,0.143485
400.6000,0.145101
400.4000,0.146769
400.2000,0.148461
400.0000,0.147823
399.8000,0.149607
399.6000,0.151434
399.4000,0.15334
399.2000,0.155274
399.0000,0.157243
398.8000,0.159297
398.6000,0.161385
398.4000,0.163539
398.2000,0.165751
398.0000,0.168011
397.8000,0.170319
397.6000,0.172678
397.4000,0.175091
397.2000,0.177566
397.0000,0.180132
396.8000,0.182752
396.6000,0.185444
396.4000,0.188201
396.2000,0.190988
396.0000,0.193846
395.8000,0.196776
395.6000,0.199779
395.4000,0.202858
395.2000,0.206021
395.0000,0.20923
394.8000,0.212533
394.6000,0.215898
394.4000,0.21935
394.2000,0.222886
394.0000,0.226499
393.8000,0.23015
393.6000,0.233905
393.4000,0.237728
393.2000,0.241627
393.0000,0.245653
392.8000,0.24973
392.6000,0.253917
392.4000,0.258182
392.2000,0.262553
392.0000,0.266952
391.8000,0.271455
391.6000,0.276051
391.4000,0.280728
391.2000,0.285524
391.0000,0.29041
390.8000,0.295325
390.6000,0.30036
390.4000,0.305492
390.2000,0.31072
390.0000,0.316052
389.8000,0.321449
389.6000,0.326962
389.4000,0.332575
389.2000,0.338248
389.0000,0.343992
388.8000,0.349858
388.6000,0.355827
388.4000,0.361857
388.2000,0.367998
388.0000,0.374204
387.8000,0.380492
387.6000,0.386911
387.4000,0.393413
387.2000,0.399993
387.0000,0.406654
386.8000,0.41341
386.6000,0.420286
386.4000,0.427237
386.2000,0.434263
386.0000,0.44137
385.8000,0.448552
385.6000,0.455833
385.4000,0.463153
385.2000,0.470617
385.0000,0.478134
384.8000,0.48572
384.6000,0.493352
384.4000,0.501107
384.2000,0.508928
384.0000,0.516791
383.8000,0.524748
383.6000,0.532753
383.4000,0.54078
383.2000,0.548918
383.0000,0.557065
382.8000,0.565286
382.6000,0.573585
382.4000,0.581942
382.2000,0.590346
382.0000,0.598768
381.8000,0.607242
381.6000,0.615749
381.4000,0.624336
381.2000,0.632887
381.0000,0.641486
380.8000,0.650127
380.6000,0.658757
380.4000,0.667403
380.2000,0.676093
380.0000,0.684735
379.8000,0.693422
379.6000,0.702123
379.4000,0.710826
379.2000,0.719485
379.0000,0.728153
378.8000,0.736798
378.6000,0.745427
378.4000,0.754072
378.2000,0.762646
378.0000,0.77121
377.8000,0.779716
377.6000,0.788207
377.4000,0.796656
377.2000,0.805112
377.0000,0.813451
376.8000,0.821729
376.6000,0.830008
376.4000,0.838228
376.2000,0.846339
376.0000,0.854413
375.8000,0.862471
375.6000,0.870441
375.4000,0.878335
375.2000,0.88614
375.0000,0.893924
374.8000,0.901647
374.6000,0.909278
374.4000,0.916782
374.2000,0.924248
374.0000,0.931599
373.8000,0.938863
373.6000,0.946099
373.4000,0.953217
373.2000,0.960254
373.0000,0.967199
372.8000,0.974063
372.6000,0.98084
372.4000,0.987553
372.2000,0.994179
372.0000,1.00067
371.8000,1.0071
371.6000,1.01347
371.4000,1.01971
371.2000,1.02592
371.0000,1.03202
370.8000,1.03804
370.6000,1.04401
370.4000,1.04987
370.2000,1.05568
370.0000,1.04972
369.8000,1.05574
369.6000,1.06163
369.4000,1.0675
369.2000,1.07328
369.0000,1.07903
368.8000,1.08474
368.6000,1.09031
368.4000,1.09583
368.2000,1.10134
368.0000,1.10678
367.8000,1.11216
367.6000,1.11752
367.4000,1.12283
367.2000,1.12802
367.0000,1.13324
366.8000,1.13827
366.6000,1.14336
366.4000,1.14837
366.2000,1.15341
366.0000,1.1584
365.8000,1.16335
365.6000,1.16816
365.4000,1.17307
365.2000,1.17788
365.0000,1.18268
364.8000,1.18744
364.6000,1.19225
364.4000,1.197
364.2000,1.20165
364.0000,1.20626
363.8000,1.21088
363.6000,1.21547
363.4000,1.22006
363.2000,1.22459
363.0000,1.22901
362.8000,1.23345
362.6000,1.23782
362.4000,1.24222
362.2000,1.24654
362.0000,1.25087
361.8000,1.2551
361.6000,1.25937
361.4000,1.26357
361.2000,1.26771
361.0000,1.27179
360.8000,1.27582
360.6000,1.27973
360.4000,1.2837
360.2000,1.28756
360.0000,1.29144
359.8000,1.29533
359.6000,1.299
359.4000,1.30275
359.2000,1.30642
359.0000,1.31008
358.8000,1.31361
358.6000,1.31702
358.4000,1.32023
358.2000,1.3234
358.0000,1.32651
357.8000,1.32962
357.6000,1.33268
357.4000,1.33571
357.2000,1.33849
357.0000,1.34119
356.8000,1.34377
356.6000,1.34619
356.4000,1.34868
356.2000,1.35085
356.0000,1.353
355.8000,1.35493
355.6000,1.35694
355.4000,1.35881
355.2000,1.36065
355.0000,1.36237
354.8000,1.36385
354.6000,1.36528
354.4000,1.36656
354.2000,1.36769
354.0000,1.36877
353.8000,1.3697
353.6000,1.37055
353.4000,1.37138
353.2000,1.37198
353.0000,1.37248
352.8000,1.37289
352.6000,1.37313
352.4000,1.3731
352.2000,1.3731
352.0000,1.37295
351.8000,1.37271
351.6000,1.37243
351.4000,1.37194
351.2000,1.37135
351.0000,1.37076
350.8000,1.36999
350.6000,1.36924
350.4000,1.36824
350.2000,1.36711
350.0000,1.3658
349.8000,1.36457
349.6000,1.36315
349.4000,1.36174
349.2000,1.36039
349.0000,1.35889
348.8000,1.35727
348.6000,1.35546
348.4000,1.35367
348.2000,1.35185
348.0000,1.34991
347.8000,1.34779
347.6000,1.34572
347.4000,1.34346
347.2000,1.34132
347.0000,1.33909
346.8000,1.33692
346.6000,1.33454
346.4000,1.33218
346.2000,1.32978
346.0000,1.32725
345.8000,1.32467
345.6000,1.32207
345.4000,1.31957
345.2000,1.31687
345.0000,1.31428
344.8000,1.31163
344.6000,1.30902
344.4000,1.30622
344.2000,1.3035
344.0000,1.30071
343.8000,1.29783
343.6000,1.29496
343.4000,1.29218
343.2000,1.2893
343.0000,1.28635
342.8000,1.28326
342.6000,1.28024
342.4000,1.27721
342.2000,1.27408
342.0000,1.271
341.8000,1.26769
341.6000,1.26455
341.4000,1.26134
341.2000,1.25822
341.0000,1.25499
340.8000,1.25165
340.6000,1.24829
340.4000,1.24496
340.2000,1.24153
340.0000,1.20301
339.8000,1.20059
339.6000,1.19793
339.4000,1.19524
339.2000,1.19262
339.0000,1.18994
338.8000,1.18729
338.6000,1.18449
338.4000,1.18147
338.2000,1.17838
338.0000,1.17531
337.8000,1.17205
337.6000,1.1688
337.4000,1.16551
337.2000,1.16216
337.0000,1.15882
336.8000,1.15544
336.6000,1.15159
336.4000,1.14799
336.2000,1.14428
336.0000,1.1405
335.8000,1.13671
335.6000,1.13283
335.4000,1.12885
335.2000,1.12491
335.0000,1.12083
334.8000,1.11662
334.6000,1.11253
334.4000,1.10827
334.2000,1.10395
334.0000,1.09945
333.8000,1.09502
333.6000,1.09057
333.4000,1.08616
333.2000,1.08166
333.0000,1.07705
332.8000,1.07232
332.6000,1.06747
332.4000,1.06264
332.2000,1.05785
332.0000,1.05292
331.8000,1.04804
331.6000,1.0431
331.4000,1.03817
331.2000,1.03317
331.0000,1.02814
330.8000,1.02321
330.6000,1.01817
330.4000,1.01295
330.2000,1.00792
330.0000,1.00275
329.8000,0.997561
329.6000,0.992394
329.4000,0.987211
329.2000,0.981972
329.0000,0.976706
328.8000,0.97151
328.6000,0.966209
328.4000,0.961023
328.2000,0.955797
328.0000,0.950654
327.8000,0.945425
327.6000,0.940272
327.4000,0.935048
327.2000,0.92985
327.0000,0.92457
326.8000,0.919346
326.6000,0.914185
326.4000,0.909109
326.2000,0.903893
326.0000,0.898758
325.8000,0.893551
325.6000,0.888494
325.4000,0.883392
325.2000,0.878266
325.0000,0.873103
324.8000,0.867949
324.6000,0.862848
324.4000,0.857694
324.2000,0.852556
324.0000,0.847476
323.8000,0.84243
323.6000,0.837387
323.4000,0.832335
323.2000,0.827253
323.0000,0.822242
322.8000,0.817262
322.6000,0.812271
322.4000,0.807086
322.2000,0.802179
322.0000,0.797081
321.8000,0.792131
321.6000,0.787123
321.4000,0.78216
321.2000,0.777147
321.0000,0.772145
320.8000,0.767135
320.6000,0.762146
320.4000,0.757158
320.2000,0.752225
320.0000,0.747222
319.8000,0.742245
319.6000,0.7372
319.4000,0.732318
319.2000,0.727512
319.0000,0.722521
318.8000,0.717653
318.6000,0.712686
318.4000,0.707807
318.2000,0.702961
318.0000,0.698106
317.8000,0.693272
317.6000,0.688518
317.4000,0.683717
317.2000,0.67895
317.0000,0.674146
316.8000,0.669449
316.6000,0.664736
316.4000,0.660104
316.2000,0.655438
316.0000,0.650835
315.8000,0.646283
315.6000,0.641739
315.4000,0.637198
315.2000,0.632677
315.0000,0.62819
314.8000,0.62373
314.6000,0.61941
314.4000,0.614992
314.2000,0.610596
314.0000,0.606259
313.8000,0.601951
313.6000,0.597661
313.4000,0.593463
313.2000,0.589225
313.0000,0.585021
312.8000,0.580787
312.6000,0.576642
312.4000,0.572528
312.2000,0.568459
312.0000,0.564366
311.8000,0.560274
311.6000,0.556332
311.4000,0.552354
311.2000,0.548452
311.0000,0.544618
310.8000,0.540783
310.6000,0.536898
310.4000,0.533058
310.2000,0.529307
310.0000,0.525611
309.8000,0.521951
309.6000,0.518359
309.4000,0.514725
309.2000,0.511156
309.0000,0.507672
308.8000,0.504225
308.6000,0.500873
308.4000,0.497503
308.2000,0.494163
308.0000,0.490803
307.8000,0.487515
307.6000,0.484304
307.4000,0.481258
307.2000,0.478192
307.0000,0.4751
306.8000,0.472098
306.6000,0.469009
306.4000,0.465989
306.2000,0.462988
306.0000,0.460115
305.8000,0.457166
305.6000,0.454318
305.4000,0.451476
305.2000,0.448597
305.0000,0.445787
304.8000,0.443096
304.6000,0.440444
304.4000,0.437729
304.2000,0.435046
304.0000,0.432382
303.8000,0.429769
303.6000,0.427151
303.4000,0.424655
303.2000,0.422145
303.0000,0.41967
302.8000,0.417161
302.6000,0.414761
302.4000,0.412379
302.2000,0.410006
302.0000,0.40767
301.8000,0.405276
301.6000,0.402909
301.4000,0.400523
301.2000,0.398246
301.0000,0.39593
300.8000,0.393697
300.6000,0.391502
300.4000,0.389324
300.2000,0.387142
300.0000,0.384996
299.8000,0.38292
299.6000,0.380898
299.4000,0.378858
299.2000,0.376819
299.0000,0.374829
298.8000,0.372911
298.6000,0.371058
298.4000,0.36923
298.2000,0.36746
298.0000,0.365661
297.8000,0.363969
297.6000,0.362292
297.4000,0.360581
297.2000,0.358919
297.0000,0.357381
296.8000,0.355858
296.6000,0.354257
296.4000,0.352759
296.2000,0.351347
296.0000,0.349966
295.8000,0.348553
295.6000,0.347187
295.4000,0.345862
295.2000,0.344592
295.0000,0.34335
294.8000,0.342169
294.6000,0.340983
294.4000,0.339817
294.2000,0.338696
294.0000,0.337596
293.8000,0.336511
293.6000,0.335479
293.4000,0.334504
293.2000,0.333456
293.0000,0.332474
292.8000,0.331518
292.6000,0.330613
292.4000,0.329701
292.2000,0.328814
292.0000,0.327865
291.8000,0.326946
291.6000,0.326023
291.4000,0.325111
291.2000,0.324249
291.0000,0.323397
290.8000,0.322539
290.6000,0.32166
290.4000,0.320786
290.2000,0.31998
290.0000,0.319146
289.8000,0.318236
289.6000,0.317324
289.4000,0.316453
289.2000,0.315587
289.0000,0.314709
288.8000,0.313852
288.6000,0.312982
288.4000,0.312146
288.2000,0.311315
288.0000,0.310449
287.8000,0.309659
287.6000,0.308837
287.4000,0.30799
287.2000,0.307136
287.0000,0.306227
286.8000,0.305331
286.6000,0.304495
286.4000,0.303609
286.2000,0.302718
286.0000,0.301834
285.8000,0.300876
285.6000,0.299987
285.4000,0.29906
285.2000,0.29812
285.0000,0.297212
284.8000,0.296241
284.6000,0.295169
284.4000,0.294199
284.2000,0.293203
284.0000,0.292203
283.8000,0.291241
283.6000,0.290263
283.4000,0.289253
283.2000,0.288261
283.0000,0.287273
282.8000,0.286302
282.6000,0.28536
282.4000,0.284339
282.2000,0.283369
282.0000,0.282361
281.8000,0.281333
281.6000,0.280365
281.4000,0.279399
281.2000,0.278384
281.0000,0.2774
280.8000,0.276425
280.6000,0.27547
280.4000,0.274608
280.2000,0.273682
280.0000,0.272775
279.8000,0.271838
279.6000,0.270948
279.4000,0.270048
279.2000,0.269156
279.0000,0.268323
278.8000,0.267476
278.6000,0.266688
278.4000,0.265923
278.2000,0.265203
278.0000,0.264496
277.8000,0.263829
277.6000,0.263209
277.4000,0.26264
277.2000,0.261977
277.0000,0.261363
276.8000,0.260844
276.6000,0.260369
276.4000,0.259878
276.2000,0.259519
276.0000,0.259227
275.8000,0.258882
275.6000,0.258608
275.4000,0.258318
275.2000,0.258009
275.0000,0.257832
274.8000,0.257656
274.6000,0.257509
274.4000,0.257405
274.2000,0.257348
274.0000,0.257341
273.8000,0.257436
273.6000,0.257588
273.4000,0.257714
273.2000,0.257917
273.0000,0.258118
272.8000,0.258362
272.6000,0.258658
272.4000,0.259048
272.2000,0.259511
272.0000,0.260076
271.8000,0.260614
271.6000,0.261189
271.4000,0.261855
271.2000,0.262567
271.0000,0.263269
270.8000,0.264102
270.6000,0.264928
270.4000,0.265788
270.2000,0.266767
270.0000,0.267734
269.8000,0.268829
269.6000,0.270007
269.4000,0.271209
269.2000,0.272462
269.0000,0.273763
268.8000,0.275109
268.6000,0.276518
268.4000,0.278066
268.2000,0.279664
268.0000,0.281263
267.8000,0.283
267.6000,0.284758
267.4000,0.28664
267.2000,0.288562
267.0000,0.290585
266.8000,0.292728
266.6000,0.294889
266.4000,0.297156
266.2000,0.299494
266.0000,0.301935
265.8000,0.304503
265.6000,0.307181
265.4000,0.309945
265.2000,0.312799
265.0000,0.315767
264.8000,0.318932
264.6000,0.322154
264.4000,0.325523
264.2000,0.328996
264.0000,0.332647
263.8000,0.33645
263.6000,0.340334
263.4000,0.344363
263.2000,0.348472
263.0000,0.352761
262.8000,0.357169
262.6000,0.361699
262.4000,0.366322
262.2000,0.371057
262.0000,0.375901
261.8000,0.380818
261.6000,0.385786
261.4000,0.390896
261.2000,0.396045
261.0000,0.401279
260.8000,0.406545
260.6000,0.411807
260.4000,0.417145
260.2000,0.422518
260.0000,0.427932
259.8000,0.433385
259.6000,0.438828
259.4000,0.44427
259.2000,0.449727
259.0000,0.455193
258.8000,0.460646
258.6000,0.466107
258.4000,0.471572
258.2000,0.477034
258.0000,0.482506
257.8000,0.487963
257.6000,0.493388
257.4000,0.498831
257.2000,0.50429
257.0000,0.509752
256.8000,0.515244
256.6000,0.520717
256.4000,0.526209
256.2000,0.531742
256.0000,0.537306
255.8000,0.542914
255.6000,0.548556
255.4000,0.554201
255.2000,0.559923
255.0000,0.565594
254.8000,0.571325
254.6000,0.577094
254.4000,0.582963
254.2000,0.5888
254.0000,0.59466
253.8000,0.600522
253.6000,0.606398
253.4000,0.612307
253.2000,0.618218
253.0000,0.624154
252.8000,0.630041
252.6000,0.635917
252.4000,0.641732
252.2000,0.647461
252.0000,0.653082
251.8000,0.658736
251.6000,0.664282
251.4000,0.669695
251.2000,0.674934
251.0000,0.680113
250.8000,0.685101
250.6000,0.689974
250.4000,0.694698
250.2000,0.69927
250.0000,0.703658
249.8000,0.707737
249.6000,0.711669
249.4000,0.715402
249.2000,0.718928
249.0000,0.722281
248.8000,0.725355
248.6000,0.728192
248.4000,0.730821
248.2000,0.733216
248.0000,0.735391
247.8000,0.737289
247.6000,0.739028
247.4000,0.740436
247.2000,0.741539
247.0000,0.742371
246.8000,0.743083
246.6000,0.743502
246.4000,0.743565
246.2000,0.743364
246.0000,0.742902
245.8000,0.742055
245.6000,0.741045
245.4000,0.739652
245.2000,0.737759
245.0000,0.735476
244.8000,0.732706
244.6000,0.729471
244.4000,0.725829
244.2000,0.721364
244.0000,0.716629
243.8000,0.711246
243.6000,0.70508
243.4000,0.698087
243.2000,0.690658
243.0000,0.682432
242.8000,0.673396
242.6000,0.663734
242.4000,0.65293
242.2000,0.641339
242.0000,0.629363
241.8000,0.616771
241.6000,0.60395
241.4000,0.59054
241.2000,0.577074
241.0000,0.564076
240.8000,0.550362
240.6000,0.537353
240.4000,0.524701
240.2000,0.513144
240.0000,0.502131
239.8000,0.491949
239.6000,0.482425
239.4000,0.474028
239.2000,0.467063
239.0000,0.461091
238.8000,0.455831
238.6000,0.451704
238.4000,0.447868
238.2000,0.445138
238.0000,0.442783
237.8000,0.440904
237.6000,0.439682
237.4000,0.438686
237.2000,0.43793
237.0000,0.437295
236.8000,0.437037
236.6000,0.437098
236.4000,0.437095
236.2000,0.436956
236.0000,0.437452
235.8000,0.437978
235.6000,0.438902
235.4000,0.439591
235.2000,0.440356
235.0000,0.441533
234.8000,0.442127
234.6000,0.44301
234.4000,0.443788
234.2000,0.4448
234.0000,0.445363
233.8000,0.446575
233.6000,0.447953
233.4000,0.448615
233.2000,0.449693
233.0000,0.451036
232.8000,0.451742
232.6000,0.45265
232.4000,0.453456
232.2000,0.454512
232.0000,0.455176
231.8000,0.45591
231.6000,0.456497
231.4000,0.457333
231.2000,0.457812
231.0000,0.457773
230.8000,0.458426
230.6000,0.457921
230.4000,0.457389
230.2000,0.456996
230.0000,0.456305
229.8000,0.455496
229.6000,0.454834
229.4000,0.453863
229.2000,0.45263
229.0000,0.450833
228.8000,0.449638
228.6000,0.447553
228.4000,0.445722
228.2000,0.444566
228.0000,0.442893
227.8000,0.441957
227.6000,0.440826
227.4000,0.440031
227.2000,0.438972
227.0000,0.438063
226.8000,0.437737
226.6000,0.437511
226.4000,0.436876
226.2000,0.436344
226.0000,0.436127
225.8000,0.435985
225.6000,0.43586
225.4000,0.436179
225.2000,0.436496
225.0000,0.436059
224.8000,0.436569
224.6000,0.436704
224.4000,0.436506
224.2000,0.436604
224.0000,0.436607
223.8000,0.436417
223.6000,0.436457
223.4000,0.435935
223.2000,0.436093
223.0000,0.436106
222.8000,0.435806
222.6000,0.435707
222.4000,0.435522
222.2000,0.435422
222.0000,0.435474
221.8000,0.435377
221.6000,0.435024
221.4000,0.434258
221.2000,0.433759
221.0000,0.433327
220.8000,0.433197
220.6000,0.433198
220.4000,0.43316
220.2000,0.433488
220.0000,0.433386
219.8000,0.432669
219.6000,0.432892
219.4000,0.432648
219.2000,0.432503
219.0000,0.431843
218.8000,0.431824
218.6000,0.431493
218.4000,0.430957
218.2000,0.431224
218.0000,0.431022
217.8000,0.430829
217.6000,0.430437
217.4000,0.430456
217.2000,0.430104
217.0000,0.429356
216.8000,0.42889
216.6000,0.42951
216.4000,0.428948
216.2000,0.428803
216.0000,0.428412
215.8000,0.428085
215.6000,0.42779
215.4000,0.427869
215.2000,0.427673
215.0000,0.427367
214.8000,0.427395
214.6000,0.427467
214.4000,0.427408
214.2000,0.426884
214.0000,0.426751
213.8000,0.426902
213.6000,0.426443
213.4000,0.425641
213.2000,0.425175
213.0000,0.424876
212.8000,0.424404
212.6000,0.424691
212.4000,0.423939
212.2000,0.423323
212.0000,0.423052
211.8000,0.42223
211.6000,0.421821
211.4000,0.42157
211.2000,0.420727
211.0000,0.419953
210.8000,0.419305
210.6000,0.418849
210.4000,0.418274
210.2000,0.418223
210.0000,0.417735
209.8000,0.416922
209.6000,0.416124
209.4000,0.415118
209.2000,0.414523
209.0000,0.413791
208.8000,0.413004
208.6000,0.412759
208.4000,0.41208
208.2000,0.411062
208.0000,0.410615
207.8000,0.41024
207.6000,0.409642
207.4000,0.408295
207.2000,0.407555
207.0000,0.406353
206.8000,0.40497
206.6000,0.404243
206.4000,0.403866
206.2000,0.402858
206.0000,0.401962
205.8000,0.400739
205.6000,0.399576
205.4000,0.398591
205.2000,0.397422
205.0000,0.396045
204.8000,0.395094
204.6000,0.394078
204.4000,0.392583
204.2000,0.391694
204.0000,0.390746
203.8000,0.389613
203.6000,0.389177
203.4000,0.38809
203.2000,0.386995
203.0000,0.385957
202.8000,0.384687
202.6000,0.383759
202.4000,0.382759
202.2000,0.381366
202.0000,0.380671
201.8000,0.379666
201.6000,0.378414
201.4000,0.376908
201.2000,0.375815
201.0000,0.374414
200.8000,0.372876
200.6000,0.371391
200.4000,0.369914
200.2000,0.368713
200.0000,0.366904

##### Extended Information
[Rg]
,c
Rg


,{ww

[f[^]
,2024/07/09 16:29

f[^^Cv,uf[^
,Wavelength [nm]
c,Abs
X^[g,800 nm
Gh,200 nm
f[^u,0.2 nm
f[^,3001    

[]
u,V-730
@,V-730
VA,C235561798

,2024/07/09 16:17

[h,Abs
,800 - 200 nm
f[^u,0.2 nm
oh,1.0 nm
X|X,0.96 sec
[h,A
x,200 nm/min
,340 nm
,D2/WI
tB^[,Xebv
,x[XC
J,1

