TITLE,c
DATA TYPE,ULTRAVIOLET SPECTRUM
ORIGIN,JASCO
OWNER,
DATE,24/07/09
TIME,16:29:54
SPECTROMETER/DATA SYSTEM,
LOCALE,1041
RESOLUTION,
DELTAX,-0.2
XUNITS,NANOMETERS
YUNITS,ABSORBANCE
FIRSTX,  800.0000
LASTX,  200.0000
NPOINTS,    3001
FIRSTY,     0.00096
MAXY,     1.08220
MINY,     0.00050
XYDATA
800.0000,0.000962208
799.8000,0.000956717
799.6000,0.00095415
799.4000,0.000948598
799.2000,0.000945434
799.0000,0.000941375
798.8000,0.000941315
798.6000,0.000939644
798.4000,0.000936838
798.2000,0.000937197
798.0000,0.00093272
797.8000,0.00092872
797.6000,0.000925318
797.4000,0.000923168
797.2000,0.000919109
797.0000,0.000918035
796.8000,0.000914453
796.6000,0.000913558
796.4000,0.000908484
796.2000,0.000908245
796.0000,0.000902932
795.8000,0.000898336
795.6000,0.000894515
795.4000,0.000894097
795.2000,0.000894874
795.0000,0.0008898
794.8000,0.00088771
794.6000,0.000883293
794.4000,0.000881621
794.2000,0.000887412
794.0000,0.000885322
793.8000,0.00087995
793.6000,0.000875533
793.4000,0.00087022
793.2000,0.000867951
793.0000,0.00086246
792.8000,0.000865385
792.6000,0.000862281
792.4000,0.000861863
792.2000,0.000860609
792.0000,0.000855356
791.8000,0.000856848
791.6000,0.000858162
791.4000,0.000855655
791.2000,0.000849327
791.0000,0.000839239
790.8000,0.00083888
790.6000,0.000834642
790.4000,0.000834224
790.2000,0.000839537
790.0000,0.000840612
789.8000,0.000841865
789.6000,0.000841686
789.4000,0.000845089
789.2000,0.000842999
789.0000,0.000844253
788.8000,0.000846223
788.6000,0.000851058
788.4000,0.000851715
788.2000,0.000858102
788.0000,0.000868429
787.8000,0.000874578
787.6000,0.000876906
787.4000,0.000887651
787.2000,0.000894217
787.0000,0.000895948
786.8000,0.000898873
786.6000,0.000903529
786.4000,0.000905499
786.2000,0.000907588
786.0000,0.000913916
785.8000,0.000915886
785.6000,0.000919885
785.4000,0.000916781
785.2000,0.000917378
785.0000,0.000920781
784.8000,0.000915408
784.6000,0.000914752
784.4000,0.000913319
784.2000,0.000907708
784.0000,0.00090538
783.8000,0.00090335
783.6000,0.000902693
783.4000,0.000899828
783.2000,0.000894336
783.0000,0.00088962
782.8000,0.000880786
782.6000,0.000874936
782.4000,0.000870936
782.2000,0.000869026
782.0000,0.000867235
781.8000,0.000858639
781.6000,0.000855058
781.4000,0.00085255
781.2000,0.000850521
781.0000,0.000851774
780.8000,0.000853088
780.6000,0.000855237
780.4000,0.000855296
780.2000,0.000859296
780.0000,0.000863295
779.8000,0.000867355
779.6000,0.000871653
779.4000,0.000873145
779.2000,0.00087207
779.0000,0.000868966
778.8000,0.000866459
778.6000,0.000863176
778.4000,0.000863355
778.2000,0.000863415
778.0000,0.000862221
777.8000,0.000859893
777.6000,0.000855117
777.4000,0.000848193
777.2000,0.00084676
777.0000,0.00084091
776.8000,0.000836732
776.6000,0.000832135
776.4000,0.000832195
776.2000,0.000832254
776.0000,0.000828673
775.8000,0.00083124
775.6000,0.000828733
775.4000,0.00082921
775.2000,0.000828852
775.0000,0.000828912
774.8000,0.000826166
774.6000,0.000823241
774.4000,0.000822465
774.2000,0.000820793
774.0000,0.000815361
773.8000,0.000811302
773.6000,0.000812197
773.4000,0.000811362
773.2000,0.000810765
773.0000,0.000810824
772.8000,0.000814227
772.6000,0.000813988
772.4000,0.000821689
772.2000,0.000827001
772.0000,0.000830344
771.8000,0.000835299
771.6000,0.000841209
771.4000,0.000845686
771.2000,0.000847656
771.0000,0.000854819
770.8000,0.000861027
770.6000,0.00086819
770.4000,0.000872488
770.2000,0.000878637
770.0000,0.000884546
769.8000,0.000891173
769.6000,0.000899231
769.4000,0.000904365
769.2000,0.000908364
769.0000,0.000914155
768.8000,0.000920542
768.6000,0.000924124
768.4000,0.000927108
768.2000,0.000929078
768.0000,0.000932063
767.8000,0.000934212
767.6000,0.000936779
767.4000,0.000936659
767.2000,0.000936898
767.0000,0.000938629
766.8000,0.000936719
766.6000,0.000933615
766.4000,0.00092687
766.2000,0.000925079
766.0000,0.000916662
765.8000,0.000910394
765.6000,0.000902216
765.4000,0.000894396
765.2000,0.000892784
765.0000,0.000892665
764.8000,0.000889979
764.6000,0.000890217
764.4000,0.000891531
764.2000,0.000894575
764.0000,0.000896485
763.8000,0.000898037
763.6000,0.000900425
763.4000,0.000905738
763.2000,0.000914035
763.0000,0.0009132
762.8000,0.000922572
762.6000,0.000930272
762.4000,0.000936659
762.2000,0.000941136
762.0000,0.000948598
761.8000,0.000951404
761.6000,0.000958866
761.4000,0.000952717
761.2000,0.000950867
761.0000,0.000945852
760.8000,0.00094824
760.6000,0.00094639
760.4000,0.000942629
760.2000,0.000934212
760.0000,0.00092872
759.8000,0.00093069
759.6000,0.000924183
759.4000,0.000918751
759.2000,0.000917319
759.0000,0.000912961
758.8000,0.000905559
758.6000,0.000905141
758.4000,0.000900186
758.2000,0.000897022
758.0000,0.000900724
757.8000,0.000903589
757.6000,0.000897022
757.4000,0.000894097
757.2000,0.000893501
757.0000,0.00089553
756.8000,0.000893441
756.6000,0.000888427
756.4000,0.000886337
756.2000,0.000882636
756.0000,0.000879234
755.8000,0.000878219
755.6000,0.000874518
755.4000,0.000870339
755.2000,0.000869981
755.0000,0.000873384
754.8000,0.000863534
754.6000,0.000855953
754.4000,0.000855834
754.2000,0.000855058
754.0000,0.000857027
753.8000,0.00085852
753.6000,0.000857983
753.4000,0.00086037
753.2000,0.000860848
753.0000,0.000859236
752.8000,0.000856311
752.6000,0.000854282
752.4000,0.000853267
752.2000,0.000849506
752.0000,0.000845566
751.8000,0.000843656
751.6000,0.000845686
751.4000,0.000846402
751.2000,0.000844134
751.0000,0.000841626
750.8000,0.000835836
750.6000,0.000829688
750.4000,0.000824733
750.2000,0.000819241
750.0000,0.000816376
749.8000,0.000818167
749.6000,0.000817152
749.4000,0.000820674
749.2000,0.000819957
749.0000,0.000819361
748.8000,0.000815242
748.6000,0.000813033
748.4000,0.000811182
748.2000,0.00080975
748.0000,0.000805989
747.8000,0.00080587
747.6000,0.000802169
747.4000,0.000800139
747.2000,0.000798587
747.0000,0.000799781
746.8000,0.000803303
746.6000,0.000802587
746.4000,0.000803363
746.2000,0.000797393
746.0000,0.000796677
745.8000,0.000795125
745.6000,0.000792618
745.4000,0.00079023
745.2000,0.000785454
745.0000,0.000780082
744.8000,0.000779425
744.6000,0.00077256
744.4000,0.000769994
744.2000,0.000764203
744.0000,0.000763009
743.8000,0.00075901
743.6000,0.000753996
743.4000,0.000745579
743.2000,0.000743072
743.0000,0.000740505
742.8000,0.000739251
742.6000,0.000736983
742.4000,0.000737639
742.2000,0.000738296
742.0000,0.000735729
741.8000,0.000736266
741.6000,0.00073746
741.4000,0.000739669
741.2000,0.000737878
741.0000,0.000740505
740.8000,0.000739788
740.6000,0.000734416
740.4000,0.000728387
740.2000,0.000728864
740.0000,0.000626967
739.8000,0.000640099
739.6000,0.000652874
739.4000,0.000663141
739.2000,0.000675677
739.0000,0.000692451
738.8000,0.000708986
738.6000,0.000723552
738.4000,0.000737401
738.2000,0.000753876
738.0000,0.00077071
737.8000,0.000775426
737.6000,0.000782888
737.4000,0.000781276
737.2000,0.000779783
737.0000,0.000778649
736.8000,0.000777933
736.6000,0.00077853
736.4000,0.000779007
736.2000,0.000783723
736.0000,0.000786171
735.8000,0.000783902
735.6000,0.000779962
735.4000,0.000781515
735.2000,0.000777933
735.0000,0.000778948
734.8000,0.000779962
734.6000,0.000776321
734.4000,0.000774471
734.2000,0.000767904
734.0000,0.000766352
733.8000,0.000763666
733.6000,0.000757398
733.4000,0.000750235
733.2000,0.000750175
733.0000,0.000744325
732.8000,0.000733879
732.6000,0.000726238
732.4000,0.000718836
732.2000,0.000708747
732.0000,0.000700868
731.8000,0.000689705
731.6000,0.000681885
731.4000,0.000681408
731.2000,0.000680154
731.0000,0.000683557
730.8000,0.000691735
730.6000,0.00069848
730.4000,0.000717582
730.2000,0.000738893
730.0000,0.000754652
729.8000,0.000775605
729.6000,0.000802885
729.4000,0.000824196
729.2000,0.000848432
729.0000,0.000873563
728.8000,0.000899172
728.6000,0.000919408
728.4000,0.000935286
728.2000,0.000944897
728.0000,0.00095791
727.8000,0.000960955
727.6000,0.000959761
727.4000,0.000955523
727.2000,0.000946628
727.0000,0.000943584
726.8000,0.000945255
726.6000,0.000939584
726.4000,0.000934093
726.2000,0.000930272
726.0000,0.000921616
725.8000,0.000914274
725.6000,0.000900485
725.4000,0.000890217
725.2000,0.000875473
725.0000,0.000873503
724.8000,0.000864967
724.6000,0.000862698
724.4000,0.000862937
724.2000,0.000863833
724.0000,0.000863833
723.8000,0.000859535
723.6000,0.00085267
723.4000,0.000849984
723.2000,0.00084282
723.0000,0.000835359
722.8000,0.00083321
722.6000,0.000825987
722.4000,0.000823539
722.2000,0.00082133
722.0000,0.000823062
721.8000,0.000811123
721.6000,0.000804079
721.4000,0.00079608
721.2000,0.000788976
721.0000,0.000783484
720.8000,0.000778052
720.6000,0.00077256
720.4000,0.000762532
720.2000,0.00075698
720.0000,0.000753518
719.8000,0.000753279
719.6000,0.00074928
719.4000,0.000745997
719.2000,0.000746892
719.0000,0.000744624
718.8000,0.000741699
718.6000,0.000747966
718.4000,0.000746295
718.2000,0.000746474
718.0000,0.000744803
717.8000,0.000741519
717.6000,0.0007414
717.4000,0.000740027
717.2000,0.000742833
717.0000,0.000741639
716.8000,0.000738296
716.6000,0.000731491
716.4000,0.000730954
716.2000,0.000730476
716.0000,0.000729163
715.8000,0.000734356
715.6000,0.000734476
715.4000,0.00073555
715.2000,0.000738595
715.0000,0.000739191
714.8000,0.000739609
714.6000,0.000742355
714.4000,0.000742773
714.2000,0.000743251
714.0000,0.000744743
713.8000,0.000745997
713.6000,0.000748683
713.4000,0.000752802
713.2000,0.000751727
713.0000,0.000755428
712.8000,0.00075322
712.6000,0.000745817
712.4000,0.000743012
712.2000,0.000736207
712.0000,0.00073358
711.8000,0.000731431
711.6000,0.000728327
711.4000,0.000725044
711.2000,0.00072588
711.0000,0.000725283
710.8000,0.000722179
710.6000,0.000722179
710.4000,0.000721044
710.2000,0.000721044
710.0000,0.000718239
709.8000,0.000716448
709.6000,0.000713404
709.4000,0.00071209
709.2000,0.000711434
709.0000,0.000710956
708.8000,0.000708628
708.6000,0.000708151
708.4000,0.000706599
708.2000,0.000708867
708.0000,0.000707076
707.8000,0.000707136
707.6000,0.000710777
707.4000,0.000709882
707.2000,0.000711434
707.0000,0.000708628
706.8000,0.000704509
706.6000,0.000702539
706.4000,0.000702778
706.2000,0.000702778
706.0000,0.000702838
705.8000,0.000702121
705.6000,0.000703077
705.4000,0.000700032
705.2000,0.000698003
705.0000,0.000696928
704.8000,0.000696451
704.6000,0.00069257
704.4000,0.000687735
704.2000,0.000686482
704.0000,0.000682542
703.8000,0.000681408
703.6000,0.000680333
703.4000,0.000678184
703.2000,0.000676214
703.0000,0.000673588
702.8000,0.000669469
702.6000,0.000666604
702.4000,0.000665051
702.2000,0.00066726
702.0000,0.000668335
701.8000,0.000664634
701.6000,0.000665947
701.4000,0.000666604
701.2000,0.00066923
701.0000,0.000666126
700.8000,0.000666126
700.6000,0.000666186
700.4000,0.000672095
700.2000,0.000672752
700.0000,0.000676274
699.8000,0.000680691
699.6000,0.000683915
699.4000,0.000687258
699.2000,0.000689645
699.0000,0.000687496
698.8000,0.000689944
698.6000,0.000690183
698.4000,0.000684512
698.2000,0.000684571
698.0000,0.000681049
697.8000,0.000683318
697.6000,0.000684392
697.4000,0.0006829
697.2000,0.000685526
697.0000,0.000683139
696.8000,0.000682363
696.6000,0.000683437
696.4000,0.000684571
696.2000,0.000686541
696.0000,0.000691615
695.8000,0.000697286
695.6000,0.000697107
695.4000,0.000700629
695.2000,0.000700032
695.0000,0.000697704
694.8000,0.000696152
694.6000,0.000692272
694.4000,0.000690063
694.2000,0.000685526
694.0000,0.000679199
693.8000,0.000678781
693.6000,0.000677528
693.4000,0.000674483
693.2000,0.00067126
693.0000,0.000669111
692.8000,0.000662544
692.6000,0.000657948
692.4000,0.000654963
692.2000,0.000653471
692.0000,0.000655679
691.8000,0.000657649
691.6000,0.000658306
691.4000,0.00065944
691.2000,0.000658366
691.0000,0.000662843
690.8000,0.000664574
690.6000,0.000668514
690.4000,0.000669648
690.2000,0.000667917
690.0000,0.000665947
689.8000,0.00066338
689.6000,0.000661828
689.4000,0.000661112
689.2000,0.000662246
689.0000,0.000663559
688.8000,0.000662246
688.6000,0.000664395
688.4000,0.000664395
688.2000,0.000660694
688.0000,0.000662007
687.8000,0.000662425
687.6000,0.000660276
687.4000,0.000657649
687.2000,0.000655739
687.0000,0.00065753
686.8000,0.000656276
686.6000,0.000656097
686.4000,0.00065353
686.2000,0.000651501
686.0000,0.000650904
685.8000,0.000644636
685.6000,0.000639861
685.4000,0.000633115
685.2000,0.000632697
685.0000,0.000635383
684.8000,0.000632996
684.6000,0.000629533
684.4000,0.000628698
684.2000,0.000631324
684.0000,0.000633772
683.8000,0.000631026
683.6000,0.000635204
683.4000,0.000631742
683.2000,0.00063419
683.0000,0.00063419
682.8000,0.000632041
682.6000,0.000634488
682.4000,0.000635383
682.2000,0.000637592
682.0000,0.000636339
681.8000,0.000636577
681.6000,0.000637891
681.4000,0.000635563
681.2000,0.000634249
681.0000,0.000627683
680.8000,0.000624459
680.6000,0.00062625
680.4000,0.000623624
680.2000,0.000622609
680.0000,0.000621952
679.8000,0.000623504
679.6000,0.000621117
679.4000,0.000618311
679.2000,0.000617236
679.0000,0.000613476
678.8000,0.000610849
678.6000,0.000609775
678.4000,0.000608641
678.2000,0.000611685
678.0000,0.000615207
677.8000,0.000613894
677.6000,0.000611685
677.4000,0.000607566
677.2000,0.000606671
677.0000,0.000607088
676.8000,0.000602492
676.6000,0.000598791
676.4000,0.000596821
676.2000,0.000596344
676.0000,0.000597
675.8000,0.000596344
675.6000,0.000597299
675.4000,0.000592523
675.2000,0.000591449
675.0000,0.000587986
674.8000,0.000587748
674.6000,0.000588643
674.4000,0.000590016
674.2000,0.00059115
674.0000,0.000591628
673.8000,0.000594254
673.6000,0.000596284
673.4000,0.000598731
673.2000,0.000600522
673.0000,0.000602791
672.8000,0.0006087
672.6000,0.000610491
672.4000,0.000610551
672.2000,0.000613715
672.0000,0.00061067
671.8000,0.00061664
671.6000,0.000614908
671.4000,0.000612103
671.2000,0.000612998
671.0000,0.000609954
670.8000,0.000609118
670.6000,0.000605477
670.4000,0.000603507
670.2000,0.000600462
670.0000,0.000600283
669.8000,0.000598851
669.6000,0.000594254
669.4000,0.00059515
669.2000,0.000594553
669.0000,0.000594553
668.8000,0.000597179
668.6000,0.000594732
668.4000,0.000596702
668.2000,0.000599806
668.0000,0.000598493
667.8000,0.000605536
667.6000,0.00060285
667.4000,0.000603328
667.2000,0.000604402
667.0000,0.000601358
666.8000,0.000595806
666.6000,0.000593239
666.4000,0.00059121
666.2000,0.000590553
666.0000,0.000587091
665.8000,0.000585778
665.6000,0.000584942
665.4000,0.000579868
665.2000,0.000574197
665.0000,0.000571809
664.8000,0.000570078
664.6000,0.00055999
664.4000,0.000557423
664.2000,0.000553901
664.0000,0.000550379
663.8000,0.000555274
663.6000,0.00055796
663.4000,0.000558856
663.2000,0.000559333
663.0000,0.00055808
662.8000,0.000559393
662.6000,0.000558796
662.4000,0.000557901
662.2000,0.000558139
662.0000,0.000557125
661.8000,0.000554498
661.6000,0.000550797
661.4000,0.00055217
661.2000,0.000551991
661.0000,0.000552946
660.8000,0.000550737
660.6000,0.000543276
660.4000,0.000540709
660.2000,0.000537664
660.0000,0.000534381
659.8000,0.000531158
659.6000,0.000530501
659.4000,0.000527695
659.2000,0.000527039
659.0000,0.000523338
658.8000,0.000520652
658.6000,0.000519816
658.4000,0.000517846
658.2000,0.000516771
658.0000,0.000518323
657.8000,0.00051898
657.6000,0.000522263
657.4000,0.000524412
657.2000,0.00052686
657.0000,0.00052686
656.8000,0.000524472
656.6000,0.000528412
656.4000,0.000529725
656.2000,0.00053062
656.0000,0.00053062
655.8000,0.000531934
655.6000,0.000530382
655.4000,0.000529904
655.2000,0.000528412
655.0000,0.000529068
654.8000,0.000529128
654.6000,0.00052871
654.4000,0.000527875
654.2000,0.000530322
654.0000,0.000528591
653.8000,0.000528889
653.6000,0.000531277
653.4000,0.000526919
653.2000,0.000529606
653.0000,0.0005308
652.8000,0.000534083
652.6000,0.000535874
652.4000,0.000543872
652.2000,0.000546081
652.0000,0.000549424
651.8000,0.000549484
651.6000,0.000546857
651.4000,0.000542977
651.2000,0.000541843
651.0000,0.000537963
650.8000,0.000537784
650.6000,0.000535874
650.4000,0.000535874
650.2000,0.000535515
650.0000,0.000530441
649.8000,0.000523875
649.6000,0.000513846
649.4000,0.00051122
649.2000,0.000505489
649.0000,0.000501251
648.8000,0.000501908
648.6000,0.000501251
648.4000,0.000500594
648.2000,0.000503698
648.0000,0.000502803
647.8000,0.000504355
647.6000,0.00050346
647.4000,0.00050149
647.2000,0.000500833
647.0000,0.000499938
646.8000,0.000499938
646.6000,0.000504116
646.4000,0.000510981
646.2000,0.000510086
646.0000,0.000514264
645.8000,0.000518204
645.6000,0.00052089
645.4000,0.000522204
645.2000,0.000526024
645.0000,0.000525606
644.8000,0.000528292
644.6000,0.000525726
644.4000,0.000523994
644.2000,0.000526681
644.0000,0.000528949
643.8000,0.000533187
643.6000,0.000534321
643.4000,0.000536112
643.2000,0.000532352
643.0000,0.000536829
642.8000,0.000536709
642.6000,0.000536053
642.4000,0.000529665
642.2000,0.000527934
642.0000,0.000522502
641.8000,0.000524054
641.6000,0.000524114
641.4000,0.000526382
641.2000,0.000531695
641.0000,0.000529546
640.8000,0.000527636
640.6000,0.000526322
640.4000,0.000527695
640.2000,0.000526382
640.0000,0.000530382
639.8000,0.000533665
639.6000,0.000534381
639.4000,0.000534799
639.2000,0.000538142
639.0000,0.00054053
638.8000,0.000545604
638.6000,0.000543216
638.4000,0.000543634
638.2000,0.000543216
638.0000,0.000544529
637.8000,0.000551394
637.6000,0.00055408
637.4000,0.000553603
637.2000,0.000551991
637.0000,0.000549782
636.8000,0.000550081
636.6000,0.000546977
636.4000,0.000544111
636.2000,0.000541246
636.0000,0.000539455
635.8000,0.00054041
635.6000,0.000541962
635.4000,0.000544231
635.2000,0.00054429
635.0000,0.000546977
634.8000,0.000542858
634.6000,0.000538918
634.4000,0.000539336
634.2000,0.000537664
634.0000,0.000535933
633.8000,0.000537306
633.6000,0.000535575
633.4000,0.000534739
633.2000,0.000533247
633.0000,0.000535933
632.8000,0.000538202
632.6000,0.000540231
632.4000,0.00054047
632.2000,0.000541604
632.0000,0.000542619
631.8000,0.000545723
631.6000,0.000548648
631.4000,0.000551573
631.2000,0.000555811
631.0000,0.000560945
630.8000,0.00056584
630.6000,0.000572884
630.4000,0.000576286
630.2000,0.00057957
630.0000,0.000582017
629.8000,0.000586434
629.6000,0.000588882
629.4000,0.000588165
629.2000,0.000588464
629.0000,0.00059109
628.8000,0.000593299
628.6000,0.000593299
628.4000,0.000599686
628.2000,0.000602134
628.0000,0.000601716
627.8000,0.000602134
627.6000,0.000603925
627.4000,0.00060482
627.2000,0.00061067
627.0000,0.000610312
626.8000,0.000613655
626.6000,0.000615267
626.4000,0.000615923
626.2000,0.000616938
626.0000,0.000618251
625.8000,0.000617236
625.6000,0.000619326
625.4000,0.000619087
625.2000,0.000617595
625.0000,0.000616759
624.8000,0.000617057
624.6000,0.000620878
624.4000,0.00062046
624.2000,0.000621415
624.0000,0.000618311
623.8000,0.000618848
623.6000,0.000621057
623.4000,0.000626907
623.2000,0.000631623
623.0000,0.000637413
622.8000,0.000642368
622.6000,0.00064392
622.4000,0.000643502
622.2000,0.000642905
622.0000,0.000644457
621.8000,0.000648218
621.6000,0.000648636
621.4000,0.000649113
621.2000,0.00064977
621.0000,0.000649531
620.8000,0.000651322
620.6000,0.000650844
620.4000,0.000651561
620.2000,0.000647084
620.0000,0.00064977
619.8000,0.000651322
619.6000,0.00065556
619.4000,0.000659798
619.2000,0.000664037
619.0000,0.000666783
618.8000,0.000669051
618.6000,0.000669708
618.4000,0.000673826
618.2000,0.000673647
618.0000,0.000678124
617.8000,0.000682363
617.6000,0.00068684
617.4000,0.000696212
617.2000,0.000701405
617.0000,0.000711016
616.8000,0.00071418
616.6000,0.000720507
616.4000,0.000724566
616.2000,0.000728148
616.0000,0.000731312
615.8000,0.00073561
615.6000,0.000737878
615.4000,0.00073943
615.2000,0.000743072
615.0000,0.000745519
614.8000,0.000744265
614.6000,0.000740982
614.4000,0.00073746
614.2000,0.000732148
614.0000,0.000732446
613.8000,0.000724089
613.6000,0.000721582
613.4000,0.000715851
613.2000,0.000708747
613.0000,0.000707852
612.8000,0.000705166
612.6000,0.000700032
612.4000,0.000697346
612.2000,0.000698719
612.0000,0.000696749
611.8000,0.000695137
611.6000,0.000696271
611.4000,0.000699196
611.2000,0.000699674
611.0000,0.000699972
610.8000,0.000695615
610.6000,0.000694719
610.4000,0.000692272
610.2000,0.000686959
610.0000,0.000686422
609.8000,0.000683795
609.6000,0.000682422
609.4000,0.000685646
609.2000,0.000687675
609.0000,0.000687675
608.8000,0.000688869
608.6000,0.000690302
608.4000,0.000689645
608.2000,0.000686123
608.0000,0.000688571
607.8000,0.000688213
607.6000,0.000687556
607.4000,0.000687317
607.2000,0.000689586
607.0000,0.000694122
606.8000,0.000694122
606.6000,0.00069842
606.4000,0.000700032
606.2000,0.000700271
606.0000,0.000700331
605.8000,0.000699734
605.6000,0.000694421
605.4000,0.000697107
605.2000,0.000699614
605.0000,0.000701226
604.8000,0.000703972
604.6000,0.000704867
604.4000,0.000709524
604.2000,0.000715373
604.0000,0.000717761
603.8000,0.000717582
603.6000,0.000718
603.4000,0.000716687
603.2000,0.000719612
603.0000,0.000720507
602.8000,0.000720448
602.6000,0.000722716
602.4000,0.000727671
602.2000,0.00072391
602.0000,0.000724208
601.8000,0.000727611
601.6000,0.000724925
601.4000,0.000728805
601.2000,0.000725641
601.0000,0.000723253
600.8000,0.000721582
600.6000,0.000726059
600.4000,0.000729939
600.2000,0.000730595
600.0000,0.000730655
599.8000,0.000731551
599.6000,0.000734595
599.4000,0.000734595
599.2000,0.000734655
599.0000,0.000740087
598.8000,0.000737401
598.6000,0.000736386
598.4000,0.00073949
598.2000,0.000740684
598.0000,0.000748325
597.8000,0.000751071
597.6000,0.000750891
597.4000,0.000750056
597.2000,0.000748563
597.0000,0.000750115
596.8000,0.000749101
596.6000,0.000747787
596.4000,0.000746713
596.2000,0.000746773
596.0000,0.00074928
595.8000,0.000744564
595.6000,0.000752384
595.4000,0.000755548
595.2000,0.000756801
595.0000,0.000756204
594.8000,0.000752623
594.6000,0.000751727
594.4000,0.000752623
594.2000,0.000752026
594.0000,0.000755488
593.8000,0.000756801
593.6000,0.000758652
593.4000,0.000765457
593.2000,0.000766591
593.0000,0.000769098
592.8000,0.000770292
592.6000,0.000772083
592.4000,0.000771247
592.2000,0.00077262
592.0000,0.000771964
591.8000,0.000771605
591.6000,0.000771665
591.4000,0.000775724
591.2000,0.000777575
591.0000,0.000779903
590.8000,0.000775903
590.6000,0.000776381
590.4000,0.000776381
590.2000,0.000775605
590.0000,0.000782052
589.8000,0.000783246
589.6000,0.000782828
589.4000,0.000785395
589.2000,0.000786111
589.0000,0.000787066
588.8000,0.00079023
588.6000,0.000798766
588.4000,0.000801512
588.2000,0.000805153
588.0000,0.000809213
587.8000,0.000811003
587.6000,0.000816794
587.4000,0.000819301
587.2000,0.000824852
587.0000,0.00083118
586.8000,0.000828971
586.6000,0.000835717
586.4000,0.000846342
586.2000,0.000856908
586.0000,0.000863892
585.8000,0.000872488
585.6000,0.000879472
585.4000,0.000882457
585.2000,0.000888128
585.0000,0.000888188
584.8000,0.000892486
584.6000,0.000898157
584.4000,0.000905618
584.2000,0.000915528
584.0000,0.000924482
583.8000,0.000927049
583.6000,0.000936242
583.4000,0.000934988
583.2000,0.000931048
583.0000,0.000929257
582.8000,0.000932003
582.6000,0.000932063
582.4000,0.000935704
582.2000,0.000941375
582.0000,0.000949673
581.8000,0.000957134
581.6000,0.000962805
581.4000,0.000971401
581.2000,0.000976296
581.0000,0.000970983
580.8000,0.000971998
580.6000,0.000976953
580.4000,0.000980654
580.2000,0.000985489
580.0000,0.000995876
579.8000,0.00100626
579.6000,0.00101128
579.4000,0.00102119
579.2000,0.00102411
579.0000,0.00102847
578.8000,0.00103235
578.6000,0.00103868
578.4000,0.00104524
578.2000,0.00105091
578.0000,0.00105187
577.8000,0.00106249
577.6000,0.00106703
577.4000,0.00107109
577.2000,0.00107455
577.0000,0.00108494
576.8000,0.00108792
576.6000,0.00109204
576.4000,0.00109813
576.2000,0.00110064
576.0000,0.00110565
575.8000,0.00110995
575.6000,0.00111073
575.4000,0.00111526
575.2000,0.00111891
575.0000,0.00112255
574.8000,0.00113096
574.6000,0.0011355
574.4000,0.00114231
574.2000,0.00114619
574.0000,0.00115389
573.8000,0.00115836
573.6000,0.00116159
573.4000,0.00116666
573.2000,0.00116809
573.0000,0.0011752
572.8000,0.00117735
572.6000,0.001186
572.4000,0.00119734
572.2000,0.00120349
572.0000,0.00121185
571.8000,0.00121997
571.6000,0.00122886
571.4000,0.00123991
571.2000,0.00124492
571.0000,0.0012571
570.8000,0.00126504
570.6000,0.00127477
570.4000,0.00128611
570.2000,0.00128999
570.0000,0.00129966
569.8000,0.00130473
569.6000,0.00131757
569.4000,0.00132258
569.2000,0.00133058
569.0000,0.00133959
568.8000,0.00134867
568.6000,0.00135255
568.4000,0.00136073
568.2000,0.0013667
568.0000,0.00138365
567.8000,0.00139374
567.6000,0.0014015
567.4000,0.00140973
567.2000,0.00141845
567.0000,0.00143164
566.8000,0.00144185
566.6000,0.00145307
566.4000,0.00146268
566.2000,0.0014702
566.0000,0.00147755
565.8000,0.00148579
565.6000,0.00149402
565.4000,0.00150674
565.2000,0.00151205
565.0000,0.00152118
564.8000,0.00152351
564.6000,0.00153103
564.4000,0.00154017
564.2000,0.00155055
564.0000,0.00155969
563.8000,0.00156697
563.6000,0.0015767
563.4000,0.00158374
563.2000,0.00159174
563.0000,0.00160261
562.8000,0.00161562
562.6000,0.00162272
562.4000,0.00162917
562.2000,0.00163633
562.0000,0.00164571
561.8000,0.00165215
561.6000,0.00166087
561.4000,0.00166934
561.2000,0.00168057
561.0000,0.00168988
560.8000,0.00170474
560.6000,0.00171662
560.4000,0.00172784
560.2000,0.00174235
560.0000,0.00175381
559.8000,0.00176945
559.6000,0.0017787
559.4000,0.00179912
559.2000,0.0018221
559.0000,0.0018409
558.8000,0.00185798
558.6000,0.00188
558.4000,0.00189732
558.2000,0.00191188
558.0000,0.00192698
557.8000,0.00194233
557.6000,0.00195677
557.4000,0.00197611
557.2000,0.00199366
557.0000,0.00200894
556.8000,0.00202584
556.6000,0.0020441
556.4000,0.00206183
556.2000,0.0020767
556.0000,0.00208929
555.8000,0.00210792
555.6000,0.00212959
555.4000,0.00214015
555.2000,0.00215949
555.0000,0.00218068
554.8000,0.00219823
554.6000,0.00221626
554.4000,0.00223292
554.2000,0.00224909
554.0000,0.00226694
553.8000,0.00228425
553.6000,0.00230234
553.4000,0.00231846
553.2000,0.00233589
553.0000,0.00235027
552.8000,0.00237069
552.6000,0.00238633
552.4000,0.00240376
552.2000,0.00242686
552.0000,0.0024425
551.8000,0.00246011
551.6000,0.00248166
551.4000,0.00250154
551.2000,0.00251969
551.0000,0.00254321
550.8000,0.00256135
550.6000,0.00258398
550.4000,0.00260409
550.2000,0.00262284
550.0000,0.00264546
549.8000,0.00266695
549.6000,0.00268862
549.4000,0.00271041
549.2000,0.00273339
549.0000,0.00275673
548.8000,0.0027815
548.6000,0.00280395
548.4000,0.00282031
548.2000,0.00284054
548.0000,0.00286711
547.8000,0.0028871
547.6000,0.00291474
547.4000,0.00293796
547.2000,0.00296656
547.0000,0.00299449
546.8000,0.00302583
546.6000,0.00305216
546.4000,0.0030749
546.2000,0.00310576
546.0000,0.00312761
545.8000,0.00315405
545.6000,0.00318432
545.4000,0.00321076
545.2000,0.0032461
545.0000,0.00327392
544.8000,0.00330586
544.6000,0.00333505
544.4000,0.00336764
544.2000,0.00339707
544.0000,0.00342966
543.8000,0.00346076
543.6000,0.00348858
543.4000,0.00352189
543.2000,0.00355765
543.0000,0.00358612
542.8000,0.00362212
542.6000,0.0036556
542.4000,0.00368599
542.2000,0.00372377
542.0000,0.00375738
541.8000,0.00379845
541.6000,0.00382681
541.4000,0.00386662
541.2000,0.00390226
541.0000,0.00394166
540.8000,0.00397568
540.6000,0.00400792
540.4000,0.00404839
540.2000,0.00408534
540.0000,0.00412038
539.8000,0.00415829
539.6000,0.00419786
539.4000,0.00424061
539.2000,0.00428753
539.0000,0.00433068
538.8000,0.00437539
538.6000,0.00442148
538.4000,0.00446756
538.2000,0.0045041
538.0000,0.00454516
537.8000,0.00459107
537.6000,0.00463536
537.4000,0.00468574
537.2000,0.00472944
537.0000,0.00477487
536.8000,0.00482411
536.6000,0.00487181
536.4000,0.00491897
536.2000,0.00496087
536.0000,0.0050057
535.8000,0.00504946
535.6000,0.00509411
535.4000,0.00513781
535.2000,0.00518741
535.0000,0.00523779
534.8000,0.00529182
534.6000,0.00534238
534.4000,0.00539533
534.2000,0.00544195
534.0000,0.00549108
533.8000,0.00554916
533.6000,0.00560241
533.4000,0.00565792
533.2000,0.00571123
533.0000,0.00577295
532.8000,0.0058299
532.6000,0.0058887
532.4000,0.00595084
532.2000,0.00600964
532.0000,0.00607047
531.8000,0.00613518
531.6000,0.00619714
531.4000,0.0062545
531.2000,0.00631945
531.0000,0.00638846
530.8000,0.00645436
530.6000,0.00651513
530.4000,0.00657739
530.2000,0.00664395
530.0000,0.00671122
529.8000,0.00677832
529.6000,0.00684118
529.4000,0.00691275
529.2000,0.00698486
529.0000,0.0070553
528.8000,0.00712544
528.6000,0.0071954
528.4000,0.00726518
528.2000,0.00734464
528.0000,0.00741018
527.8000,0.00748062
527.6000,0.00755524
527.4000,0.00763093
527.2000,0.00770471
527.0000,0.00778088
526.8000,0.00785717
526.6000,0.00793382
526.4000,0.0080156
526.2000,0.00809039
526.0000,0.00816555
525.8000,0.00824685
525.6000,0.00832631
525.4000,0.00840576
525.2000,0.00848963
525.0000,0.0085698
524.8000,0.00866429
524.6000,0.00875025
524.4000,0.00883759
524.2000,0.00892611
524.0000,0.00901816
523.8000,0.00910376
523.6000,0.00919832
523.4000,0.00928738
523.2000,0.00937847
523.0000,0.00947148
522.8000,0.00956072
522.6000,0.0096548
522.4000,0.00974995
522.2000,0.00985143
522.0000,0.0099436
521.8000,0.0100444
521.6000,0.0101395
521.4000,0.0102436
521.2000,0.0103457
521.0000,0.0104482
520.8000,0.0105524
520.6000,0.0106602
520.4000,0.010763
520.2000,0.0108752
520.0000,0.0109833
519.8000,0.0110935
519.6000,0.0112073
519.4000,0.0113178
519.2000,0.0114343
519.0000,0.011545
518.8000,0.0116599
518.6000,0.0117732
518.4000,0.0118849
518.2000,0.0119995
518.0000,0.0121181
517.8000,0.0122416
517.6000,0.0123584
517.4000,0.0124796
517.2000,0.0125971
517.0000,0.0127128
516.8000,0.0128379
516.6000,0.0129633
516.4000,0.0130924
516.2000,0.0132231
516.0000,0.0133482
515.8000,0.0134778
515.6000,0.0136126
515.4000,0.0137452
515.2000,0.0138864
515.0000,0.0140217
514.8000,0.0141621
514.6000,0.0142959
514.4000,0.0144365
514.2000,0.0145775
514.0000,0.0147243
513.8000,0.0148722
513.6000,0.0150183
513.4000,0.0151623
513.2000,0.0153069
513.0000,0.0154535
512.8000,0.0156035
512.6000,0.0157537
512.4000,0.0159039
512.2000,0.0160563
512.0000,0.0162019
511.8000,0.0163576
511.6000,0.0165034
511.4000,0.0166559
511.2000,0.0168109
511.0000,0.0169658
510.8000,0.017128
510.6000,0.0172892
510.4000,0.0174485
510.2000,0.0176134
510.0000,0.017782
509.8000,0.0179423
509.6000,0.0181101
509.4000,0.0182789
509.2000,0.0184431
509.0000,0.0186109
508.8000,0.0187888
508.6000,0.0189631
508.4000,0.0191426
508.2000,0.019319
508.0000,0.0194973
507.8000,0.0196795
507.6000,0.0198563
507.4000,0.0200327
507.2000,0.0202161
507.0000,0.0203962
506.8000,0.0205737
506.6000,0.0207621
506.4000,0.0209512
506.2000,0.0211344
506.0000,0.0213281
505.8000,0.0215273
505.6000,0.0217223
505.4000,0.0219212
505.2000,0.0221215
505.0000,0.0223278
504.8000,0.022531
504.6000,0.0227316
504.4000,0.0229411
504.2000,0.0231572
504.0000,0.0233653
503.8000,0.023576
503.6000,0.023796
503.4000,0.024014
503.2000,0.0242301
503.0000,0.0244503
502.8000,0.0246659
502.6000,0.0248776
502.4000,0.0250941
502.2000,0.0253102
502.0000,0.0255317
501.8000,0.025752
501.6000,0.0259783
501.4000,0.0262078
501.2000,0.0264313
501.0000,0.0266576
500.8000,0.0268894
500.6000,0.0271229
500.4000,0.027351
500.2000,0.0275837
500.0000,0.028071
499.8000,0.028302
499.6000,0.0285428
499.4000,0.028786
499.2000,0.0290291
499.0000,0.0292682
498.8000,0.0295098
498.6000,0.0297614
498.4000,0.0300054
498.2000,0.0302548
498.0000,0.0305011
497.8000,0.0307507
497.6000,0.0310031
497.4000,0.0312513
497.2000,0.0315053
497.0000,0.0317596
496.8000,0.0320202
496.6000,0.0322827
496.4000,0.0325491
496.2000,0.0328132
496.0000,0.0330807
495.8000,0.0333495
495.6000,0.0336307
495.4000,0.0338955
495.2000,0.0341728
495.0000,0.0344467
494.8000,0.0347246
494.6000,0.0350032
494.4000,0.0352839
494.2000,0.0355698
494.0000,0.0358541
493.8000,0.0361342
493.6000,0.0364181
493.4000,0.0367028
493.2000,0.0369869
493.0000,0.0372819
492.8000,0.0375763
492.6000,0.037868
492.4000,0.0381517
492.2000,0.0384423
492.0000,0.0387394
491.8000,0.039041
491.6000,0.0393404
491.4000,0.0396405
491.2000,0.0399411
491.0000,0.0402388
490.8000,0.0405372
490.6000,0.0408417
490.4000,0.0411494
490.2000,0.0414696
490.0000,0.0417834
489.8000,0.0420887
489.6000,0.0424033
489.4000,0.0427226
489.2000,0.0430458
489.0000,0.0433657
488.8000,0.0436862
488.6000,0.0440103
488.4000,0.044341
488.2000,0.0446772
488.0000,0.0449982
487.8000,0.0453289
487.6000,0.0456688
487.4000,0.0460082
487.2000,0.0463443
487.0000,0.0466701
486.8000,0.0470072
486.6000,0.0473474
486.4000,0.0476837
486.2000,0.0480125
486.0000,0.0483475
485.8000,0.0487006
485.6000,0.0490351
485.4000,0.0493768
485.2000,0.0497197
485.0000,0.0500572
484.8000,0.050409
484.6000,0.0507592
484.4000,0.0511077
484.2000,0.0514568
484.0000,0.0517978
483.8000,0.0521556
483.6000,0.0525058
483.4000,0.0528563
483.2000,0.0532169
483.0000,0.053583
482.8000,0.0539482
482.6000,0.054296
482.4000,0.0546592
482.2000,0.0550219
482.0000,0.0553843
481.8000,0.0557492
481.6000,0.0561151
481.4000,0.0564862
481.2000,0.0568448
481.0000,0.0572188
480.8000,0.0575883
480.6000,0.0579433
480.4000,0.0583077
480.2000,0.0586743
480.0000,0.0590383
479.8000,0.0594007
479.6000,0.0597592
479.4000,0.0601341
479.2000,0.0605067
479.0000,0.0608736
478.8000,0.0612358
478.6000,0.0616108
478.4000,0.0619822
478.2000,0.0623494
478.0000,0.062734
477.8000,0.0631069
477.6000,0.0634889
477.4000,0.0638772
477.2000,0.0642638
477.0000,0.0646468
476.8000,0.0650283
476.6000,0.065417
476.4000,0.0658042
476.2000,0.0661802
476.0000,0.0665609
475.8000,0.0669453
475.6000,0.0673362
475.4000,0.0677188
475.2000,0.0681062
475.0000,0.0684898
474.8000,0.0688534
474.6000,0.0692265
474.4000,0.0696091
474.2000,0.0699923
474.0000,0.0703691
473.8000,0.0707532
473.6000,0.0711389
473.4000,0.0715193
473.2000,0.0719095
473.0000,0.0723044
472.8000,0.0726908
472.6000,0.0730755
472.4000,0.0734588
472.2000,0.0738482
472.0000,0.074222
471.8000,0.0746108
471.6000,0.0750126
471.4000,0.0754062
471.2000,0.0757985
471.0000,0.076187
470.8000,0.0765765
470.6000,0.0769584
470.4000,0.0773428
470.2000,0.0777252
470.0000,0.0780989
469.8000,0.078486
469.6000,0.0788652
469.4000,0.0792471
469.2000,0.0796294
469.0000,0.0800037
468.8000,0.0803943
468.6000,0.080773
468.4000,0.0811499
468.2000,0.0815298
468.0000,0.0818994
467.8000,0.0822737
467.6000,0.0826604
467.4000,0.0830338
467.2000,0.0833997
467.0000,0.0837844
466.8000,0.0841714
466.6000,0.0845382
466.4000,0.0849154
466.2000,0.0852921
466.0000,0.0856647
465.8000,0.0860427
465.6000,0.086413
465.4000,0.0867781
465.2000,0.0871407
465.0000,0.0875052
464.8000,0.0878793
464.6000,0.0882521
464.4000,0.0886121
464.2000,0.0889869
464.0000,0.0893553
463.8000,0.0897063
463.6000,0.0900589
463.4000,0.0904185
463.2000,0.0907783
463.0000,0.0911361
462.8000,0.0914993
462.6000,0.0918506
462.4000,0.0922061
462.2000,0.0925553
462.0000,0.0929155
461.8000,0.0932617
461.6000,0.093603
461.4000,0.093941
461.2000,0.0942838
461.0000,0.0946209
460.8000,0.0949573
460.6000,0.0953022
460.4000,0.0956334
460.2000,0.0959688
460.0000,0.0962958
459.8000,0.096622
459.6000,0.0969397
459.4000,0.0972592
459.2000,0.0975844
459.0000,0.0979145
458.8000,0.0982307
458.6000,0.0985577
458.4000,0.0988762
458.2000,0.0991884
458.0000,0.0995082
457.8000,0.0998267
457.6000,0.100145
457.4000,0.100452
457.2000,0.100768
457.0000,0.101063
456.8000,0.101369
456.6000,0.10166
456.4000,0.101967
456.2000,0.102264
456.0000,0.102544
455.8000,0.102823
455.6000,0.103106
455.4000,0.103388
455.2000,0.103661
455.0000,0.10394
454.8000,0.104213
454.6000,0.104475
454.4000,0.104742
454.2000,0.105004
454.0000,0.10527
453.8000,0.105542
453.6000,0.105788
453.4000,0.106047
453.2000,0.106289
453.0000,0.106546
452.8000,0.106815
452.6000,0.107069
452.4000,0.10731
452.2000,0.107556
452.0000,0.107804
451.8000,0.108045
451.6000,0.108269
451.4000,0.108492
451.2000,0.108716
451.0000,0.108938
450.8000,0.109154
450.6000,0.109373
450.4000,0.109588
450.2000,0.109803
450.0000,0.110001
449.8000,0.110202
449.6000,0.110403
449.4000,0.110595
449.2000,0.110793
449.0000,0.110976
448.8000,0.111165
448.6000,0.11134
448.4000,0.111519
448.2000,0.111703
448.0000,0.111873
447.8000,0.112045
447.6000,0.112209
447.4000,0.112366
447.2000,0.112534
447.0000,0.112692
446.8000,0.11285
446.6000,0.112996
446.4000,0.113129
446.2000,0.11327
446.0000,0.113415
445.8000,0.113543
445.6000,0.113679
445.4000,0.113803
445.2000,0.113935
445.0000,0.114066
444.8000,0.114199
444.6000,0.114309
444.4000,0.114422
444.2000,0.114525
444.0000,0.114626
443.8000,0.114722
443.6000,0.114834
443.4000,0.114941
443.2000,0.115037
443.0000,0.115133
442.8000,0.115214
442.6000,0.115306
442.4000,0.115371
442.2000,0.115454
442.0000,0.115515
441.8000,0.115581
441.6000,0.115625
441.4000,0.115698
441.2000,0.115746
441.0000,0.115807
440.8000,0.115861
440.6000,0.115907
440.4000,0.115933
440.2000,0.11596
440.0000,0.115993
439.8000,0.116011
439.6000,0.116037
439.4000,0.116045
439.2000,0.116069
439.0000,0.116072
438.8000,0.116078
438.6000,0.116085
438.4000,0.116084
438.2000,0.116074
438.0000,0.116066
437.8000,0.116061
437.6000,0.116035
437.4000,0.116025
437.2000,0.116018
437.0000,0.115985
436.8000,0.115956
436.6000,0.115922
436.4000,0.115884
436.2000,0.115851
436.0000,0.115799
435.8000,0.115762
435.6000,0.115716
435.4000,0.115649
435.2000,0.115598
435.0000,0.115533
434.8000,0.115467
434.6000,0.115397
434.4000,0.11534
434.2000,0.115262
434.0000,0.115172
433.8000,0.115107
433.6000,0.115008
433.4000,0.11492
433.2000,0.11484
433.0000,0.11476
432.8000,0.114665
432.6000,0.114576
432.4000,0.114479
432.2000,0.114374
432.0000,0.11427
431.8000,0.114163
431.6000,0.114066
431.4000,0.11394
431.2000,0.113798
431.0000,0.113681
430.8000,0.113554
430.6000,0.113401
430.4000,0.113278
430.2000,0.113156
430.0000,0.113009
429.8000,0.112841
429.6000,0.112693
429.4000,0.112527
429.2000,0.112372
429.0000,0.112221
428.8000,0.112054
428.6000,0.111895
428.4000,0.111716
428.2000,0.111554
428.0000,0.111403
427.8000,0.111235
427.6000,0.111084
427.4000,0.110926
427.2000,0.110772
427.0000,0.110606
426.8000,0.110421
426.6000,0.11027
426.4000,0.110099
426.2000,0.109905
426.0000,0.109742
425.8000,0.109565
425.6000,0.109408
425.4000,0.109227
425.2000,0.109068
425.0000,0.108898
424.8000,0.108698
424.6000,0.108515
424.4000,0.108321
424.2000,0.108133
424.0000,0.107937
423.8000,0.107739
423.6000,0.107566
423.4000,0.107365
423.2000,0.107166
423.0000,0.107002
422.8000,0.106795
422.6000,0.10659
422.4000,0.106393
422.2000,0.106223
422.0000,0.106024
421.8000,0.105822
421.6000,0.105642
421.4000,0.10546
421.2000,0.105261
421.0000,0.105111
420.8000,0.104986
420.6000,0.104886
420.4000,0.104775
420.2000,0.104654
420.0000,0.104541
419.8000,0.104426
419.6000,0.104344
419.4000,0.104282
419.2000,0.104187
419.0000,0.104097
418.8000,0.104017
418.6000,0.103954
418.4000,0.103802
418.2000,0.103604
418.0000,0.103404
417.8000,0.103155
417.6000,0.10283
417.4000,0.102506
417.2000,0.102196
417.0000,0.101898
416.8000,0.101602
416.6000,0.101311
416.4000,0.101005
416.2000,0.100696
416.0000,0.100403
415.8000,0.100075
415.6000,0.0997788
415.4000,0.0994724
415.2000,0.0992682
415.0000,0.0990947
414.8000,0.0989255
414.6000,0.0987974
414.4000,0.0986911
414.2000,0.0985702
414.0000,0.0984834
413.8000,0.0983805
413.6000,0.098288
413.4000,0.0981881
413.2000,0.0980711
413.0000,0.0979856
412.8000,0.0979054
412.6000,0.09782
412.4000,0.0977554
412.2000,0.0977137
412.0000,0.0976765
411.8000,0.0976192
411.6000,0.097646
411.4000,0.0976523
411.2000,0.0976901
411.0000,0.0977254
410.8000,0.0977186
410.6000,0.0977854
410.4000,0.0978745
410.2000,0.0979612
410.0000,0.0980552
409.8000,0.0981696
409.6000,0.0982937
409.4000,0.0984591
409.2000,0.0986158
409.0000,0.0987743
408.8000,0.0989667
408.6000,0.0992178
408.4000,0.0994388
408.2000,0.0996564
408.0000,0.0998798
407.8000,0.100155
407.6000,0.100456
407.4000,0.100754
407.2000,0.101034
407.0000,0.101342
406.8000,0.101701
406.6000,0.101979
406.4000,0.102347
406.2000,0.102722
406.0000,0.103102
405.8000,0.103474
405.6000,0.103875
405.4000,0.104296
405.2000,0.104735
405.0000,0.105211
404.8000,0.10575
404.6000,0.106256
404.4000,0.106772
404.2000,0.107367
404.0000,0.107971
403.8000,0.108664
403.6000,0.109353
403.4000,0.110128
403.2000,0.110852
403.0000,0.111635
402.8000,0.112419
402.6000,0.113294
402.4000,0.11415
402.2000,0.115036
402.0000,0.115873
401.8000,0.116781
401.6000,0.117724
401.4000,0.118715
401.2000,0.119763
401.0000,0.120762
400.8000,0.121833
400.6000,0.122883
400.4000,0.12399
400.2000,0.125117
400.0000,0.122563
399.8000,0.123761
399.6000,0.12502
399.4000,0.126326
399.2000,0.127642
399.0000,0.128995
398.8000,0.130418
398.6000,0.131848
398.4000,0.133332
398.2000,0.134857
398.0000,0.136412
397.8000,0.138031
397.6000,0.139691
397.4000,0.141373
397.2000,0.143104
397.0000,0.144915
396.8000,0.146749
396.6000,0.148643
396.4000,0.150546
396.2000,0.152502
396.0000,0.15453
395.8000,0.1566
395.6000,0.158719
395.4000,0.160894
395.2000,0.163141
395.0000,0.165443
394.8000,0.167796
394.6000,0.170191
394.4000,0.172674
394.2000,0.175215
394.0000,0.177801
393.8000,0.180431
393.6000,0.183116
393.4000,0.185895
393.2000,0.188729
393.0000,0.191668
392.8000,0.194622
392.6000,0.197668
392.4000,0.200794
392.2000,0.203995
392.0000,0.207236
391.8000,0.210517
391.6000,0.213893
391.4000,0.217332
391.2000,0.220848
391.0000,0.224419
390.8000,0.22803
390.6000,0.231733
390.4000,0.235531
390.2000,0.239364
390.0000,0.243289
389.8000,0.247244
389.6000,0.251294
389.4000,0.255413
389.2000,0.259557
389.0000,0.263782
388.8000,0.268076
388.6000,0.272487
388.4000,0.276894
388.2000,0.281398
388.0000,0.285953
387.8000,0.2906
387.6000,0.295345
387.4000,0.300148
387.2000,0.305011
387.0000,0.309928
386.8000,0.31492
386.6000,0.32
386.4000,0.325125
386.2000,0.330302
386.0000,0.33557
385.8000,0.340877
385.6000,0.346253
385.4000,0.351665
385.2000,0.35721
385.0000,0.362787
384.8000,0.368423
384.6000,0.374114
384.4000,0.379879
384.2000,0.385663
384.0000,0.391482
383.8000,0.397382
383.6000,0.403337
383.4000,0.409338
383.2000,0.415408
383.0000,0.421501
382.8000,0.427635
382.6000,0.433831
382.4000,0.440058
382.2000,0.446333
382.0000,0.452648
381.8000,0.458994
381.6000,0.465359
381.4000,0.471743
381.2000,0.478136
381.0000,0.484581
380.8000,0.491059
380.6000,0.497542
380.4000,0.504012
380.2000,0.510505
380.0000,0.516991
379.8000,0.523514
379.6000,0.530057
379.4000,0.536575
379.2000,0.543108
379.0000,0.549634
378.8000,0.556115
378.6000,0.562591
378.4000,0.569083
378.2000,0.575532
378.0000,0.581964
377.8000,0.588379
377.6000,0.594791
377.4000,0.601178
377.2000,0.607551
377.0000,0.613844
376.8000,0.62013
376.6000,0.626402
376.4000,0.632637
376.2000,0.638865
376.0000,0.645027
375.8000,0.651158
375.6000,0.657233
375.4000,0.663271
375.2000,0.669247
375.0000,0.675219
374.8000,0.681126
374.6000,0.68697
374.4000,0.692749
374.2000,0.698493
374.0000,0.704182
373.8000,0.709823
373.6000,0.715409
373.4000,0.720935
373.2000,0.726381
373.0000,0.731764
372.8000,0.737108
372.6000,0.742394
372.4000,0.747622
372.2000,0.752802
372.0000,0.757904
371.8000,0.762945
371.6000,0.767983
371.4000,0.772903
371.2000,0.777807
371.0000,0.782636
370.8000,0.787459
370.6000,0.792208
370.4000,0.796904
370.2000,0.80156
370.0000,0.805048
369.8000,0.809731
369.6000,0.814252
369.4000,0.818772
369.2000,0.82321
369.0000,0.827661
368.8000,0.832016
368.6000,0.836336
368.4000,0.840691
368.2000,0.84496
368.0000,0.84919
367.8000,0.853359
367.6000,0.857588
367.4000,0.861754
367.2000,0.865844
367.0000,0.869942
366.8000,0.873967
366.6000,0.877922
366.4000,0.881904
366.2000,0.885836
366.0000,0.8898
365.8000,0.893699
365.6000,0.897634
365.4000,0.901528
365.2000,0.905391
365.0000,0.909251
364.8000,0.913105
364.6000,0.916961
364.4000,0.920778
364.2000,0.924537
364.0000,0.928343
363.8000,0.932095
363.6000,0.935837
363.4000,0.939586
363.2000,0.943328
363.0000,0.947035
362.8000,0.950755
362.6000,0.954376
362.4000,0.958005
362.2000,0.961655
362.0000,0.965229
361.8000,0.968848
361.6000,0.972456
361.4000,0.976037
361.2000,0.979507
361.0000,0.98302
360.8000,0.986461
360.6000,0.989905
360.4000,0.993359
360.2000,0.996768
360.0000,1.00012
359.8000,1.00347
359.6000,1.00679
359.4000,1.01012
359.2000,1.0133
359.0000,1.01648
358.8000,1.01959
358.6000,1.02262
358.4000,1.02562
358.2000,1.02851
358.0000,1.03139
357.8000,1.03424
357.6000,1.03704
357.4000,1.03977
357.2000,1.04235
357.0000,1.04493
356.8000,1.04744
356.6000,1.04983
356.4000,1.05209
356.2000,1.05429
356.0000,1.0565
355.8000,1.05857
355.6000,1.06067
355.4000,1.0626
355.2000,1.06444
355.0000,1.06616
354.8000,1.06788
354.6000,1.06943
354.4000,1.07094
354.2000,1.07234
354.0000,1.07364
353.8000,1.0748
353.6000,1.07593
353.4000,1.07699
353.2000,1.07796
353.0000,1.07881
352.8000,1.07953
352.6000,1.08023
352.4000,1.08072
352.2000,1.08112
352.0000,1.08153
351.8000,1.08185
351.6000,1.08208
351.4000,1.0822
351.2000,1.08218
351.0000,1.08209
350.8000,1.08199
350.6000,1.08178
350.4000,1.08146
350.2000,1.08106
350.0000,1.08058
349.8000,1.08009
349.6000,1.07949
349.4000,1.07876
349.2000,1.07813
349.0000,1.07747
348.8000,1.07657
348.6000,1.07566
348.4000,1.07465
348.2000,1.07367
348.0000,1.0726
347.8000,1.07152
347.6000,1.07043
347.4000,1.06916
347.2000,1.06791
347.0000,1.06664
346.8000,1.06526
346.6000,1.06392
346.4000,1.06253
346.2000,1.06114
346.0000,1.05963
345.8000,1.05808
345.6000,1.05657
345.4000,1.05509
345.2000,1.05348
345.0000,1.05189
344.8000,1.05033
344.6000,1.0487
344.4000,1.04699
344.2000,1.04538
344.0000,1.04373
343.8000,1.04205
343.6000,1.04039
343.4000,1.03859
343.2000,1.03691
343.0000,1.03517
342.8000,1.0334
342.6000,1.03166
342.4000,1.02989
342.2000,1.02807
342.0000,1.02631
341.8000,1.02446
341.6000,1.02263
341.4000,1.02079
341.2000,1.01895
341.0000,1.01715
340.8000,1.01524
340.6000,1.01329
340.4000,1.01139
340.2000,1.00941
340.0000,0.991801
339.8000,0.990102
339.6000,0.988346
339.4000,0.986532
339.2000,0.984923
339.0000,0.98307
338.8000,0.981094
338.6000,0.979198
338.4000,0.977091
338.2000,0.974972
338.0000,0.972856
337.8000,0.970633
337.6000,0.968451
337.4000,0.966105
337.2000,0.963865
337.0000,0.961667
336.8000,0.959201
336.6000,0.956772
336.4000,0.954312
336.2000,0.951776
336.0000,0.948971
335.8000,0.946438
335.6000,0.943755
335.4000,0.941034
335.2000,0.938432
335.0000,0.935694
334.8000,0.932922
334.6000,0.930096
334.4000,0.92712
334.2000,0.92429
334.0000,0.921178
333.8000,0.918119
333.6000,0.915053
333.4000,0.911923
333.2000,0.908828
333.0000,0.905646
332.8000,0.902434
332.6000,0.899067
332.4000,0.895873
332.2000,0.89255
332.0000,0.889128
331.8000,0.885742
331.6000,0.882366
331.4000,0.879019
331.2000,0.87557
331.0000,0.872159
330.8000,0.868684
330.6000,0.865124
330.4000,0.861644
330.2000,0.858106
330.0000,0.854561
329.8000,0.851036
329.6000,0.847516
329.4000,0.843989
329.2000,0.84042
329.0000,0.836897
328.8000,0.833469
328.6000,0.829925
328.4000,0.826418
328.2000,0.822837
328.0000,0.819442
327.8000,0.815798
327.6000,0.812443
327.4000,0.80899
327.2000,0.805505
327.0000,0.802066
326.8000,0.79857
326.6000,0.795143
326.4000,0.791799
326.2000,0.788298
326.0000,0.784842
325.8000,0.781426
325.6000,0.77798
325.4000,0.77459
325.2000,0.771116
325.0000,0.767696
324.8000,0.764251
324.6000,0.760938
324.4000,0.757461
324.2000,0.754072
324.0000,0.750655
323.8000,0.747261
323.6000,0.74391
323.4000,0.740521
323.2000,0.737103
323.0000,0.733845
322.8000,0.73053
322.6000,0.727072
322.4000,0.723682
322.2000,0.720314
322.0000,0.71694
321.8000,0.713573
321.6000,0.710194
321.4000,0.706813
321.2000,0.703435
321.0000,0.70007
320.8000,0.696649
320.6000,0.693288
320.4000,0.689921
320.2000,0.686506
320.0000,0.683168
319.8000,0.679736
319.6000,0.676361
319.4000,0.673062
319.2000,0.669731
319.0000,0.666414
318.8000,0.663158
318.6000,0.659797
318.4000,0.656415
318.2000,0.653103
318.0000,0.649839
317.8000,0.646545
317.6000,0.643364
317.4000,0.640101
317.2000,0.636847
317.0000,0.633608
316.8000,0.63035
316.6000,0.627091
316.4000,0.623825
316.2000,0.62061
316.0000,0.61738
315.8000,0.61416
315.6000,0.61097
315.4000,0.607859
315.2000,0.604726
315.0000,0.601568
314.8000,0.598429
314.6000,0.595367
314.4000,0.592223
314.2000,0.589177
314.0000,0.586108
313.8000,0.583118
313.6000,0.580096
313.4000,0.577178
313.2000,0.574317
313.0000,0.571279
312.8000,0.568268
312.6000,0.565349
312.4000,0.562394
312.2000,0.559472
312.0000,0.556575
311.8000,0.553709
311.6000,0.550935
311.4000,0.548046
311.2000,0.545268
311.0000,0.542435
310.8000,0.539687
310.6000,0.536828
310.4000,0.534113
310.2000,0.53132
310.0000,0.528475
309.8000,0.525882
309.6000,0.523261
309.4000,0.520557
309.2000,0.517873
309.0000,0.515247
308.8000,0.512667
308.6000,0.510191
308.4000,0.507519
308.2000,0.50501
308.0000,0.502473
307.8000,0.49991
307.6000,0.497427
307.4000,0.495117
307.2000,0.49263
307.0000,0.490272
306.8000,0.487977
306.6000,0.485526
306.4000,0.483211
306.2000,0.480834
306.0000,0.478513
305.8000,0.476217
305.6000,0.473925
305.4000,0.471536
305.2000,0.469283
305.0000,0.467023
304.8000,0.464779
304.6000,0.462644
304.4000,0.460423
304.2000,0.45821
304.0000,0.456091
303.8000,0.453924
303.6000,0.451779
303.4000,0.449731
303.2000,0.447609
303.0000,0.44558
302.8000,0.44352
302.6000,0.441476
302.4000,0.439489
302.2000,0.437495
302.0000,0.43551
301.8000,0.433533
301.6000,0.431606
301.4000,0.429661
301.2000,0.427746
301.0000,0.425794
300.8000,0.423839
300.6000,0.421959
300.4000,0.420063
300.2000,0.418171
300.0000,0.416285
299.8000,0.414486
299.6000,0.412791
299.4000,0.411025
299.2000,0.409241
299.0000,0.407518
298.8000,0.405816
298.6000,0.404163
298.4000,0.402464
298.2000,0.400888
298.0000,0.399223
297.8000,0.397651
297.6000,0.396168
297.4000,0.394631
297.2000,0.393145
297.0000,0.391689
296.8000,0.390306
296.6000,0.388844
296.4000,0.387431
296.2000,0.386065
296.0000,0.384768
295.8000,0.383477
295.6000,0.382216
295.4000,0.380967
295.2000,0.379781
295.0000,0.378533
294.8000,0.377409
294.6000,0.37622
294.4000,0.375012
294.2000,0.373884
294.0000,0.372781
293.8000,0.371667
293.6000,0.370599
293.4000,0.369544
293.2000,0.368492
293.0000,0.367467
292.8000,0.366472
292.6000,0.365452
292.4000,0.364476
292.2000,0.363445
292.0000,0.362449
291.8000,0.361476
291.6000,0.360526
291.4000,0.359551
291.2000,0.358653
291.0000,0.357687
290.8000,0.356712
290.6000,0.355791
290.4000,0.354858
290.2000,0.353947
290.0000,0.352956
289.8000,0.351951
289.6000,0.350948
289.4000,0.350019
289.2000,0.34906
289.0000,0.348124
288.8000,0.347157
288.6000,0.346163
288.4000,0.345226
288.2000,0.344299
288.0000,0.34333
287.8000,0.342413
287.6000,0.341403
287.4000,0.340463
287.2000,0.33942
287.0000,0.338413
286.8000,0.337428
286.6000,0.336474
286.4000,0.335493
286.2000,0.334413
286.0000,0.333389
285.8000,0.332313
285.6000,0.331227
285.4000,0.330202
285.2000,0.329069
285.0000,0.327955
284.8000,0.326823
284.6000,0.325662
284.4000,0.32458
284.2000,0.323431
284.0000,0.322324
283.8000,0.321244
283.6000,0.320164
283.4000,0.31904
283.2000,0.317864
283.0000,0.316801
282.8000,0.315655
282.6000,0.314528
282.4000,0.313443
282.2000,0.312308
282.0000,0.311212
281.8000,0.310143
281.6000,0.309053
281.4000,0.307994
281.2000,0.306937
281.0000,0.305856
280.8000,0.304843
280.6000,0.303838
280.4000,0.302887
280.2000,0.301922
280.0000,0.300985
279.8000,0.300036
279.6000,0.299172
279.4000,0.29831
279.2000,0.297495
279.0000,0.296729
278.8000,0.295975
278.6000,0.295313
278.4000,0.294666
278.2000,0.294039
278.0000,0.293448
277.8000,0.29297
277.6000,0.292497
277.4000,0.292015
277.2000,0.291592
277.0000,0.291197
276.8000,0.290921
276.6000,0.290706
276.4000,0.290484
276.2000,0.290342
276.0000,0.29027
275.8000,0.290228
275.6000,0.29027
275.4000,0.290336
275.2000,0.290458
275.0000,0.290736
274.8000,0.291
274.6000,0.291306
274.4000,0.291686
274.2000,0.292205
274.0000,0.292678
273.8000,0.29331
273.6000,0.293997
273.4000,0.294691
273.2000,0.295501
273.0000,0.296384
272.8000,0.297307
272.6000,0.298268
272.4000,0.299345
272.2000,0.300472
272.0000,0.301676
271.8000,0.302916
271.6000,0.304251
271.4000,0.305688
271.2000,0.307144
271.0000,0.308685
270.8000,0.310333
270.6000,0.312031
270.4000,0.313777
270.2000,0.315648
270.0000,0.317553
269.8000,0.319568
269.6000,0.321684
269.4000,0.323842
269.2000,0.326038
269.0000,0.328326
268.8000,0.330679
268.6000,0.333032
268.4000,0.335537
268.2000,0.33805
268.0000,0.340684
267.8000,0.343286
267.6000,0.345984
267.4000,0.348769
267.2000,0.351605
267.0000,0.354463
266.8000,0.357427
266.6000,0.360442
266.4000,0.363472
266.2000,0.366569
266.0000,0.369767
265.8000,0.37301
265.6000,0.376386
265.4000,0.379842
265.2000,0.383259
265.0000,0.386791
264.8000,0.390412
264.6000,0.394084
264.4000,0.397889
264.2000,0.401748
264.0000,0.40572
263.8000,0.4098
263.6000,0.413924
263.4000,0.418104
263.2000,0.422335
263.0000,0.426693
262.8000,0.431111
262.6000,0.435554
262.4000,0.440052
262.2000,0.444591
262.0000,0.449293
261.8000,0.45402
261.6000,0.458774
261.4000,0.463613
261.2000,0.468391
261.0000,0.473235
260.8000,0.47807
260.6000,0.482923
260.4000,0.487786
260.2000,0.492678
260.0000,0.49757
259.8000,0.502464
259.6000,0.507347
259.4000,0.512229
259.2000,0.517086
259.0000,0.521956
258.8000,0.526755
258.6000,0.531513
258.4000,0.536278
258.2000,0.541022
258.0000,0.545752
257.8000,0.550471
257.6000,0.555166
257.4000,0.559816
257.2000,0.564422
257.0000,0.569059
256.8000,0.573668
256.6000,0.578253
256.4000,0.582825
256.2000,0.587442
256.0000,0.592058
255.8000,0.596642
255.6000,0.601272
255.4000,0.605901
255.2000,0.610529
255.0000,0.615156
254.8000,0.619806
254.6000,0.624465
254.4000,0.629125
254.2000,0.633776
254.0000,0.63847
253.8000,0.643102
253.6000,0.647763
253.4000,0.652425
253.2000,0.65708
253.0000,0.66171
252.8000,0.666253
252.6000,0.670801
252.4000,0.675309
252.2000,0.67978
252.0000,0.684155
251.8000,0.688486
251.6000,0.692756
251.4000,0.696852
251.2000,0.700879
251.0000,0.704832
250.8000,0.708627
250.6000,0.712343
250.4000,0.71594
250.2000,0.719408
250.0000,0.722733
249.8000,0.725845
249.6000,0.728854
249.4000,0.731688
249.2000,0.734325
249.0000,0.736796
248.8000,0.739135
248.6000,0.741267
248.4000,0.743281
248.2000,0.745143
248.0000,0.74687
247.8000,0.74841
247.6000,0.749817
247.4000,0.751012
247.2000,0.752008
247.0000,0.752867
246.8000,0.753631
246.6000,0.754286
246.4000,0.754814
246.2000,0.755139
246.0000,0.755324
245.8000,0.75531
245.6000,0.75509
245.4000,0.754574
245.2000,0.753957
245.0000,0.753124
244.8000,0.751988
244.6000,0.75056
244.4000,0.74882
244.2000,0.746937
244.0000,0.744817
243.8000,0.742199
243.6000,0.739041
243.4000,0.735468
243.2000,0.73126
243.0000,0.726965
242.8000,0.722212
242.6000,0.716733
242.4000,0.710826
242.2000,0.704799
242.0000,0.697888
241.8000,0.69038
241.6000,0.682662
241.4000,0.674533
241.2000,0.666194
241.0000,0.657598
240.8000,0.648985
240.6000,0.640558
240.4000,0.632275
240.2000,0.624496
240.0000,0.617707
239.8000,0.610918
239.6000,0.604211
239.4000,0.598574
239.2000,0.592953
239.0000,0.58836
238.8000,0.584893
238.6000,0.581745
238.4000,0.579214
238.2000,0.577396
238.0000,0.575655
237.8000,0.574334
237.6000,0.573176
237.4000,0.572188
237.2000,0.571968
237.0000,0.571523
236.8000,0.570603
236.6000,0.570175
236.4000,0.56995
236.2000,0.569809
236.0000,0.570413
235.8000,0.570646
235.6000,0.57033
235.4000,0.57085
235.2000,0.57099
235.0000,0.571233
234.8000,0.571313
234.6000,0.571469
234.4000,0.571412
234.2000,0.571843
234.0000,0.571151
233.8000,0.571176
233.6000,0.572111
233.4000,0.572049
233.2000,0.572174
233.0000,0.572275
232.8000,0.572277
232.6000,0.572005
232.4000,0.572197
232.2000,0.571853
232.0000,0.571643
231.8000,0.571467
231.6000,0.571514
231.4000,0.571559
231.2000,0.571835
231.0000,0.571859
230.8000,0.572386
230.6000,0.572724
230.4000,0.572229
230.2000,0.572563
230.0000,0.572232
229.8000,0.572842
229.6000,0.572915
229.4000,0.573681
229.2000,0.573322
229.0000,0.573601
228.8000,0.573807
228.6000,0.574063
228.4000,0.574591
228.2000,0.574211
228.0000,0.574262
227.8000,0.573755
227.6000,0.574295
227.4000,0.573851
227.2000,0.573898
227.0000,0.573808
226.8000,0.574363
226.6000,0.574157
226.4000,0.573939
226.2000,0.573665
226.0000,0.573627
225.8000,0.573811
225.6000,0.573324
225.4000,0.573075
225.2000,0.572809
225.0000,0.573156
224.8000,0.57305
224.6000,0.573804
224.4000,0.573203
224.2000,0.57385
224.0000,0.574116
223.8000,0.573207
223.6000,0.572914
223.4000,0.572256
223.2000,0.572105
223.0000,0.571396
222.8000,0.570842
222.6000,0.570206
222.4000,0.570134
222.2000,0.56969
222.0000,0.569709
221.8000,0.569351
221.6000,0.569185
221.4000,0.568641
221.2000,0.568328
221.0000,0.567833
220.8000,0.567495
220.6000,0.568375
220.4000,0.568175
220.2000,0.568021
220.0000,0.567762
219.8000,0.568074
219.6000,0.568986
219.4000,0.569227
219.2000,0.569432
219.0000,0.569751
218.8000,0.56949
218.6000,0.569485
218.4000,0.569432
218.2000,0.569238
218.0000,0.569011
217.8000,0.569531
217.6000,0.569215
217.4000,0.568442
217.2000,0.568222
217.0000,0.568309
216.8000,0.567777
216.6000,0.567522
216.4000,0.567161
216.2000,0.566577
216.0000,0.566202
215.8000,0.565703
215.6000,0.565554
215.4000,0.565055
215.2000,0.564858
215.0000,0.564693
214.8000,0.564584
214.6000,0.56313
214.4000,0.562842
214.2000,0.563189
214.0000,0.562502
213.8000,0.561873
213.6000,0.562393
213.4000,0.56181
213.2000,0.561269
213.0000,0.561138
212.8000,0.560917
212.6000,0.560495
212.4000,0.559951
212.2000,0.55949
212.0000,0.558938
211.8000,0.558009
211.6000,0.557847
211.4000,0.557792
211.2000,0.557258
211.0000,0.556384
210.8000,0.556218
210.6000,0.555753
210.4000,0.554734
210.2000,0.554478
210.0000,0.553552
209.8000,0.552886
209.6000,0.551421
209.4000,0.550846
209.2000,0.550176
209.0000,0.549847
208.8000,0.549356
208.6000,0.54953
208.4000,0.548793
208.2000,0.548052
208.0000,0.547274
207.8000,0.546972
207.6000,0.547017
207.4000,0.546498
207.2000,0.545687
207.0000,0.545003
206.8000,0.544678
206.6000,0.543696
206.4000,0.543467
206.2000,0.542345
206.0000,0.541403
205.8000,0.53991
205.6000,0.538886
205.4000,0.537338
205.2000,0.53623
205.0000,0.535164
204.8000,0.534127
204.6000,0.532452
204.4000,0.530398
204.2000,0.529447
204.0000,0.528472
203.8000,0.52661
203.6000,0.525332
203.4000,0.523915
203.2000,0.523035
203.0000,0.521701
202.8000,0.520137
202.6000,0.519419
202.4000,0.51825
202.2000,0.517117
202.0000,0.51626
201.8000,0.515306
201.6000,0.51436
201.4000,0.513115
201.2000,0.51198
201.0000,0.510212
200.8000,0.509091
200.6000,0.508154
200.4000,0.506601
200.2000,0.505409
200.0000,0.503468

##### Extended Information
[Rg]
,c
Rg


,{ww

[f[^]
,2024/07/09 16:29

f[^^Cv,uf[^
,Wavelength [nm]
c,Abs
X^[g,800 nm
Gh,200 nm
f[^u,0.2 nm
f[^,3001    

[]
u,V-730
@,V-730
VA,C235561798

,2024/07/09 16:28

[h,Abs
,800 - 200 nm
f[^u,0.2 nm
oh,1.0 nm
X|X,0.96 sec
[h,A
x,200 nm/min
,340 nm
,D2/WI
tB^[,Xebv
,x[XC
J,1

