TITLE,c
DATA TYPE,ULTRAVIOLET SPECTRUM
ORIGIN,JASCO
OWNER,
DATE,24/07/09
TIME,16:41:06
SPECTROMETER/DATA SYSTEM,
LOCALE,1041
RESOLUTION,
DELTAX,-0.2
XUNITS,NANOMETERS
YUNITS,ABSORBANCE
FIRSTX,  800.0000
LASTX,  200.0000
NPOINTS,    3001
FIRSTY,     0.00124
MAXY,     0.84831
MINY,     0.00023
XYDATA
800.0000,0.00123692
799.8000,0.00123662
799.6000,0.00123489
799.4000,0.00123537
799.2000,0.00123573
799.0000,0.00123161
798.8000,0.00123113
798.6000,0.00123018
798.4000,0.00122546
798.2000,0.00122224
798.0000,0.00122236
797.8000,0.00121692
797.6000,0.00120863
797.4000,0.00120415
797.2000,0.00120182
797.0000,0.00119901
796.8000,0.00119901
796.6000,0.00119961
796.4000,0.00119979
796.2000,0.00120254
796.0000,0.00119973
795.8000,0.00120248
795.6000,0.00120075
795.4000,0.00120224
795.2000,0.00120301
795.0000,0.00120701
794.8000,0.00120677
794.6000,0.00121042
794.4000,0.00121442
794.2000,0.00122062
794.0000,0.00121704
793.8000,0.00121543
793.6000,0.00121167
793.4000,0.0012091
793.2000,0.00120725
793.0000,0.00120009
792.8000,0.00120284
792.6000,0.00119907
792.4000,0.00120009
792.2000,0.00119848
792.0000,0.00119531
791.8000,0.00119114
791.6000,0.00119131
791.4000,0.00118755
791.2000,0.00118146
791.0000,0.00117203
790.8000,0.00117436
790.6000,0.00117669
790.4000,0.00117693
790.2000,0.00117627
790.0000,0.0011786
789.8000,0.0011755
789.6000,0.0011749
789.4000,0.00117472
789.2000,0.00117156
789.0000,0.00117197
788.8000,0.00117102
788.6000,0.0011706
788.4000,0.00116409
788.2000,0.001162
788.0000,0.00116481
787.8000,0.00116338
787.6000,0.0011583
787.4000,0.00115603
787.2000,0.00115544
787.0000,0.00115341
786.8000,0.00114965
786.6000,0.00115114
786.4000,0.00114595
786.2000,0.00114344
786.0000,0.00114308
785.8000,0.00113998
785.6000,0.00114111
785.4000,0.00114075
785.2000,0.00114475
785.0000,0.00114905
784.8000,0.0011472
784.6000,0.00114869
784.4000,0.00114816
784.2000,0.00114505
784.0000,0.00114493
783.8000,0.00114308
783.6000,0.00114248
783.4000,0.00114087
783.2000,0.00113771
783.0000,0.00113449
782.8000,0.00112523
782.6000,0.00112273
782.4000,0.00111765
782.2000,0.00111222
782.0000,0.00110321
781.8000,0.00109336
781.6000,0.00108369
781.4000,0.0010761
781.2000,0.00107091
781.0000,0.00106733
780.8000,0.0010644
780.6000,0.00106082
780.4000,0.00105754
780.2000,0.00105647
780.0000,0.00105461
779.8000,0.00105342
779.6000,0.00105617
779.4000,0.00105217
779.2000,0.00105115
779.0000,0.00104757
778.8000,0.00104512
778.6000,0.00104369
778.4000,0.00104411
778.2000,0.00104333
778.0000,0.00104339
777.8000,0.00103683
777.6000,0.00103504
777.4000,0.00103151
777.2000,0.00102519
777.0000,0.00101826
776.8000,0.00101408
776.6000,0.00100805
776.4000,0.00100155
776.2000,0.000996294
776.0000,0.000987698
775.8000,0.000984773
775.6000,0.000978684
775.4000,0.000971998
775.2000,0.000968894
775.0000,0.000965372
774.8000,0.000959104
774.6000,0.00095791
774.4000,0.000947404
774.2000,0.000940719
774.0000,0.000937197
773.8000,0.000933018
773.6000,0.000931824
773.4000,0.00093266
773.2000,0.00093463
773.0000,0.000931705
772.8000,0.000933197
772.6000,0.000931287
772.4000,0.000938987
772.2000,0.000945136
772.0000,0.000945554
771.8000,0.000949434
771.6000,0.00095218
771.4000,0.000952836
771.2000,0.000957134
771.0000,0.000962387
770.8000,0.000965432
770.6000,0.000967342
770.4000,0.000970148
770.2000,0.000971401
770.0000,0.000973968
769.8000,0.000980534
769.6000,0.000987399
769.4000,0.000993309
769.2000,0.000993548
769.0000,0.000992951
768.8000,0.000994503
768.6000,0.000993249
768.4000,0.000990086
768.2000,0.00098722
768.0000,0.000987041
767.8000,0.000984892
767.6000,0.000982863
767.4000,0.00098143
767.2000,0.000978326
767.0000,0.000976237
766.8000,0.000974565
766.6000,0.000972953
766.4000,0.000962805
766.2000,0.000957433
766.0000,0.000950687
765.8000,0.000945494
765.6000,0.000940898
765.4000,0.000936719
765.2000,0.000934093
765.0000,0.000935406
764.8000,0.000930451
764.6000,0.000929615
764.4000,0.000929615
764.2000,0.000933913
764.0000,0.000934809
763.8000,0.000935048
763.6000,0.000936182
763.4000,0.000936898
763.2000,0.00094239
763.0000,0.000938808
762.8000,0.000939107
762.6000,0.000938271
762.4000,0.000935824
762.2000,0.000932242
762.0000,0.000935883
761.8000,0.000935286
761.6000,0.000939763
761.4000,0.000936421
761.2000,0.000930988
761.0000,0.000922572
760.8000,0.000920064
760.6000,0.000914811
760.4000,0.000904544
760.2000,0.000895053
760.0000,0.000893202
759.8000,0.000893202
759.6000,0.000891769
759.4000,0.000889919
759.2000,0.000893799
759.0000,0.0008975
758.8000,0.000894993
758.6000,0.000893978
758.4000,0.000891113
758.2000,0.00088771
758.0000,0.000893083
757.8000,0.000898276
757.6000,0.000894515
757.4000,0.000894575
757.2000,0.000895888
757.0000,0.000898933
756.8000,0.000892366
756.6000,0.000892426
756.4000,0.000892904
756.2000,0.000892187
756.0000,0.000890098
755.8000,0.00088777
755.6000,0.000886815
755.4000,0.000883293
755.2000,0.000882278
755.0000,0.000882935
754.8000,0.000872608
754.6000,0.00086443
754.4000,0.000864071
754.2000,0.000859475
754.0000,0.000856371
753.8000,0.000853864
753.6000,0.000851416
753.4000,0.000849148
753.2000,0.000845984
753.0000,0.000843119
752.8000,0.000838045
752.6000,0.000832254
752.4000,0.000828852
752.2000,0.000826643
752.0000,0.000823897
751.8000,0.000822644
751.6000,0.000824196
751.4000,0.000825569
751.2000,0.000821569
751.0000,0.000822942
750.8000,0.000824136
750.6000,0.000819062
750.4000,0.000815361
750.2000,0.000810108
750.0000,0.000810227
749.8000,0.000810944
749.6000,0.000809272
749.4000,0.000808735
749.2000,0.000806526
749.0000,0.000805332
748.8000,0.000800796
748.6000,0.000796438
748.4000,0.000794767
748.2000,0.000791662
748.0000,0.000788737
747.8000,0.000789454
747.6000,0.000786409
747.4000,0.000786947
747.2000,0.000787902
747.0000,0.000788917
746.8000,0.000786887
746.6000,0.000785992
746.4000,0.000785454
746.2000,0.000782291
746.0000,0.000783484
745.8000,0.000781276
745.6000,0.000777276
745.4000,0.000773754
745.2000,0.000767785
745.0000,0.000765337
744.8000,0.000762771
744.6000,0.000755906
744.4000,0.000753996
744.2000,0.000750951
744.0000,0.00075125
743.8000,0.000749996
743.6000,0.000746892
743.4000,0.000740923
743.2000,0.000738774
743.0000,0.000739669
742.8000,0.000736446
742.6000,0.000735252
742.4000,0.000735252
742.2000,0.000738057
742.0000,0.000739609
741.8000,0.000737102
741.6000,0.000737222
741.4000,0.00073752
741.2000,0.000733998
741.0000,0.000733222
740.8000,0.000730118
740.6000,0.000723671
740.4000,0.000720865
740.2000,0.000719851
740.0000,0.000561124
739.8000,0.000572764
739.6000,0.000585121
739.4000,0.000594314
739.2000,0.000605357
739.0000,0.000616341
738.8000,0.000633055
738.6000,0.000646009
738.4000,0.000658784
738.2000,0.000674244
738.0000,0.000687317
737.8000,0.000689347
737.6000,0.00069066
737.4000,0.00068493
737.2000,0.000676931
737.0000,0.000670842
736.8000,0.000661709
736.6000,0.000659798
736.4000,0.000654784
736.2000,0.000656575
736.0000,0.000653113
735.8000,0.00064768
735.6000,0.00063801
735.4000,0.000633533
735.2000,0.000628041
735.0000,0.000621654
734.8000,0.000618072
734.6000,0.000608282
734.4000,0.000596284
734.2000,0.000584524
734.0000,0.000580704
733.8000,0.000570436
733.6000,0.000557483
733.4000,0.000541724
733.2000,0.00053074
733.0000,0.000514622
732.8000,0.000494685
732.6000,0.000479403
732.4000,0.000465017
732.2000,0.000451287
732.0000,0.000436602
731.8000,0.000427171
731.6000,0.00041553
731.4000,0.000410098
731.2000,0.000413023
731.0000,0.000418455
730.8000,0.00042544
730.6000,0.000439885
730.4000,0.000460659
730.2000,0.00048782
730.0000,0.000510623
729.8000,0.000537426
729.6000,0.000574734
729.4000,0.000603984
729.2000,0.000638368
729.0000,0.000666962
728.8000,0.000698898
728.6000,0.000721641
728.4000,0.000746653
728.2000,0.000761815
728.0000,0.000772501
727.8000,0.000779067
727.6000,0.000783902
727.4000,0.000783126
727.2000,0.000783007
727.0000,0.000788558
726.8000,0.000793453
726.6000,0.000794588
726.4000,0.000792737
726.2000,0.00078635
726.0000,0.000777097
725.8000,0.000769814
725.6000,0.000755369
725.4000,0.000748742
725.2000,0.000737042
725.0000,0.000733401
724.8000,0.000731491
724.6000,0.000729163
724.4000,0.000730058
724.2000,0.000732506
724.0000,0.000732327
723.8000,0.000727133
723.6000,0.000722895
723.4000,0.000715194
723.2000,0.000707792
723.0000,0.000704748
722.8000,0.00070236
722.6000,0.000697107
722.4000,0.000697107
722.2000,0.000695316
722.0000,0.000698779
721.8000,0.000694302
721.6000,0.000689228
721.4000,0.000682363
721.2000,0.000673707
721.0000,0.000667738
720.8000,0.000660157
720.6000,0.000649113
720.4000,0.000639801
720.2000,0.00063598
720.0000,0.000635324
719.8000,0.000634249
719.6000,0.000632936
719.4000,0.000631145
719.2000,0.000628996
719.0000,0.000624519
718.8000,0.000618311
718.6000,0.000619147
718.4000,0.000618609
718.2000,0.000618729
718.0000,0.000620341
717.8000,0.000616222
717.6000,0.000615446
717.4000,0.000615625
717.2000,0.000617296
717.0000,0.000616938
716.8000,0.000613416
716.6000,0.000607924
716.4000,0.000605238
716.2000,0.000603208
716.0000,0.000602492
715.8000,0.00060488
715.6000,0.00060285
715.4000,0.000602432
715.2000,0.000601119
715.0000,0.000600462
714.8000,0.000596582
714.6000,0.000596523
714.4000,0.000596941
714.2000,0.000593717
714.0000,0.000591508
713.8000,0.000590374
713.6000,0.000590434
713.4000,0.000594314
713.2000,0.000595448
713.0000,0.00059891
712.8000,0.000599149
712.6000,0.000598015
712.4000,0.000599388
712.2000,0.000598254
712.0000,0.000600045
711.8000,0.000601537
711.6000,0.000604164
711.4000,0.000604343
711.2000,0.000603865
711.0000,0.000607805
710.8000,0.000607387
710.6000,0.000608044
710.4000,0.000605596
710.2000,0.000606671
710.0000,0.000603865
709.8000,0.00060291
709.6000,0.000597239
709.4000,0.000594851
709.2000,0.00059312
709.0000,0.000590911
708.8000,0.000590971
708.6000,0.000590076
708.4000,0.000587628
708.2000,0.000590076
708.0000,0.000593538
707.8000,0.000594016
707.6000,0.000600104
707.4000,0.000604044
707.2000,0.000608223
707.0000,0.00060673
706.8000,0.000604104
706.6000,0.000604522
706.4000,0.000605895
706.2000,0.000607148
706.0000,0.00060876
705.8000,0.000607148
705.6000,0.000604641
705.4000,0.000600283
705.2000,0.00059891
705.0000,0.000594553
704.8000,0.000591508
704.6000,0.000588225
704.4000,0.000581002
704.2000,0.000574496
704.0000,0.00056578
703.8000,0.000559871
703.6000,0.000557483
703.4000,0.000551991
703.2000,0.00055026
703.0000,0.000546141
702.8000,0.000542619
702.6000,0.00054244
702.4000,0.000545007
702.2000,0.000548529
702.0000,0.000551095
701.8000,0.000550678
701.6000,0.000554856
701.4000,0.000556349
701.2000,0.000558557
701.0000,0.000559154
700.8000,0.000559871
700.6000,0.000563572
700.4000,0.00056578
700.2000,0.000565959
700.0000,0.000569302
699.8000,0.00056972
699.6000,0.000571212
699.4000,0.000570556
699.2000,0.000565721
699.0000,0.00056005
698.8000,0.000558796
698.6000,0.000554617
698.4000,0.000546798
698.2000,0.000544828
698.0000,0.000540649
697.8000,0.000540052
697.6000,0.00054244
697.4000,0.000537008
697.2000,0.000537903
697.0000,0.000538799
696.8000,0.000536888
696.6000,0.00054041
696.4000,0.000538858
696.2000,0.00054047
696.0000,0.000541127
695.8000,0.000539634
695.6000,0.000533784
695.4000,0.000537067
695.2000,0.00053665
695.0000,0.000533426
694.8000,0.000531874
694.6000,0.000524711
694.4000,0.000522323
694.2000,0.000519935
694.0000,0.000514981
693.8000,0.000515219
693.6000,0.000514563
693.4000,0.000510026
693.2000,0.000506325
693.0000,0.000502445
692.8000,0.00050137
692.6000,0.000503758
692.4000,0.000505609
692.2000,0.000503639
692.0000,0.000500833
691.8000,0.000499759
691.6000,0.000502624
691.4000,0.000507638
691.2000,0.000504415
691.0000,0.000503161
690.8000,0.000500773
690.6000,0.000499281
690.4000,0.00049558
690.2000,0.000491222
690.0000,0.000489014
689.8000,0.000487939
689.6000,0.000485969
689.4000,0.000482865
689.2000,0.000480537
689.0000,0.000479224
688.8000,0.000479403
688.6000,0.000481791
688.4000,0.00048006
688.2000,0.000475881
688.0000,0.000478746
687.8000,0.000482268
687.6000,0.00048579
687.4000,0.000486208
687.2000,0.000488775
687.0000,0.000493192
686.8000,0.00049361
686.6000,0.000494326
686.4000,0.000494326
686.2000,0.000498386
686.0000,0.000501012
685.8000,0.000499759
685.6000,0.000502863
685.4000,0.000498087
685.2000,0.000500296
685.0000,0.000502087
684.8000,0.000501072
684.6000,0.000500893
684.4000,0.000498684
684.2000,0.000498744
684.0000,0.0004994
683.8000,0.000497968
683.6000,0.000499102
683.4000,0.000495162
683.2000,0.000494326
683.0000,0.000488417
682.8000,0.000485671
682.6000,0.00048782
682.4000,0.000484537
682.2000,0.000486805
682.0000,0.000483104
681.8000,0.000483343
681.6000,0.000484477
681.4000,0.000481015
681.2000,0.000481015
681.0000,0.000478448
680.8000,0.000479821
680.6000,0.000482209
680.4000,0.000483164
680.2000,0.000483402
680.0000,0.000484298
679.8000,0.000490446
679.6000,0.000490685
679.4000,0.000491819
679.2000,0.000493192
679.0000,0.000492715
678.8000,0.000490745
678.6000,0.000492058
678.4000,0.000489849
678.2000,0.000491401
678.0000,0.00049552
677.8000,0.000494446
677.6000,0.000491163
677.4000,0.000486387
677.2000,0.000482865
677.0000,0.000481552
676.8000,0.000480836
676.6000,0.000475881
676.4000,0.000471464
676.2000,0.000465255
676.0000,0.000462629
675.8000,0.000462032
675.6000,0.000463823
675.4000,0.000458988
675.2000,0.000459823
675.0000,0.000460062
674.8000,0.000455883
674.6000,0.000454331
674.4000,0.000450213
674.2000,0.000451287
674.0000,0.000453496
673.8000,0.000455227
673.6000,0.00045266
673.4000,0.000454928
673.2000,0.000459764
673.0000,0.000462868
672.8000,0.00046442
672.6000,0.000460301
672.4000,0.000457913
672.2000,0.000454451
672.0000,0.000451406
671.8000,0.000453675
671.6000,0.000453257
671.4000,0.000451526
671.2000,0.000450272
671.0000,0.000445676
670.8000,0.000441975
670.6000,0.000437677
670.4000,0.000438572
670.2000,0.000433976
670.0000,0.000432961
669.8000,0.000430155
669.6000,0.000428006
669.4000,0.000432662
669.2000,0.000430275
669.0000,0.000430513
668.8000,0.000429618
668.6000,0.000422335
668.4000,0.000420127
668.2000,0.000420604
668.0000,0.000419948
667.8000,0.000420843
667.6000,0.000417261
667.4000,0.00041356
667.2000,0.000412008
667.0000,0.000406099
666.8000,0.000397741
666.6000,0.000392667
666.4000,0.000391832
666.2000,0.000387176
666.0000,0.000381326
665.8000,0.000381505
665.6000,0.000379535
665.4000,0.000381027
665.2000,0.00037649
665.0000,0.000374461
664.8000,0.000375774
664.6000,0.000373148
664.4000,0.000371655
664.2000,0.000373565
664.0000,0.000364134
663.8000,0.000366999
663.6000,0.000368312
663.4000,0.000370043
663.2000,0.000369864
663.0000,0.000367715
662.8000,0.000369208
662.6000,0.000365805
662.4000,0.000365566
662.2000,0.000359657
662.0000,0.000356373
661.8000,0.000349628
661.6000,0.000344375
661.4000,0.000341569
661.2000,0.000339361
661.0000,0.000336555
660.8000,0.000335958
660.6000,0.000331362
660.4000,0.000327004
660.2000,0.000322467
660.0000,0.000313215
659.8000,0.000309991
659.6000,0.000309752
659.4000,0.000307186
659.2000,0.000306768
659.0000,0.000302828
658.8000,0.000302171
658.6000,0.000299067
658.4000,0.000294948
658.2000,0.000294053
658.0000,0.000294292
657.8000,0.000295127
657.6000,0.000296679
657.4000,0.000295306
657.2000,0.00029662
657.0000,0.000294232
656.8000,0.000294053
656.6000,0.000294232
656.4000,0.000293157
656.2000,0.000293575
656.0000,0.000287427
655.8000,0.000288263
655.6000,0.000287367
655.4000,0.000288263
655.2000,0.000288083
655.0000,0.000283069
654.8000,0.000280383
654.6000,0.000276443
654.4000,0.000278413
654.2000,0.000278174
654.0000,0.000275727
653.8000,0.000277518
653.6000,0.000277518
653.4000,0.000274175
653.2000,0.000271608
653.0000,0.000272503
652.8000,0.000274652
652.6000,0.000273757
652.4000,0.000275966
652.2000,0.000276383
652.0000,0.000278592
651.8000,0.000283965
651.6000,0.000284442
651.4000,0.000287785
651.2000,0.000286293
651.0000,0.000283905
650.8000,0.000286591
650.6000,0.000283129
650.4000,0.000284442
650.2000,0.000283427
650.0000,0.000282771
649.8000,0.000275548
649.6000,0.000270354
649.4000,0.000270175
649.2000,0.000266176
649.0000,0.000265519
648.8000,0.000264206
648.6000,0.00025955
648.4000,0.000256744
648.2000,0.000255789
648.0000,0.000253879
647.8000,0.000254715
647.6000,0.000250536
647.4000,0.000246775
647.2000,0.000244387
647.0000,0.000240806
646.8000,0.000238597
646.6000,0.000243253
646.4000,0.000244984
646.2000,0.000244149
646.0000,0.00024588
645.8000,0.000246059
645.6000,0.000246357
645.4000,0.000243671
645.2000,0.000242358
645.0000,0.00023997
644.8000,0.000241701
644.6000,0.000238418
644.4000,0.000235314
644.2000,0.000238657
644.0000,0.00023794
643.8000,0.00024194
643.6000,0.000243253
643.4000,0.00024391
643.2000,0.000241701
643.0000,0.000241224
642.8000,0.000238179
642.6000,0.000235732
642.4000,0.000229822
642.2000,0.000233344
642.0000,0.000230359
641.8000,0.000230598
641.6000,0.000229762
641.4000,0.000230658
641.2000,0.000236269
641.0000,0.00023603
640.8000,0.000239194
640.6000,0.000240567
640.4000,0.00024391
640.2000,0.000244208
640.0000,0.000248148
639.8000,0.000252804
639.6000,0.000256804
639.4000,0.000258117
639.2000,0.000267191
639.0000,0.000268922
638.8000,0.000273996
638.6000,0.000274234
638.4000,0.000277756
638.2000,0.000282651
638.0000,0.000284621
637.8000,0.000288203
637.6000,0.000287725
637.4000,0.000289934
637.2000,0.000289039
637.0000,0.000290352
636.8000,0.000293038
636.6000,0.000295068
636.4000,0.000294411
636.2000,0.000295247
636.0000,0.000291009
635.8000,0.000294829
635.6000,0.000295247
635.4000,0.00029459
635.2000,0.000290829
635.0000,0.000289456
634.8000,0.000287964
634.6000,0.000287546
634.4000,0.000290591
634.2000,0.000286412
634.0000,0.000285517
633.8000,0.000281995
633.6000,0.000274294
633.4000,0.000270533
633.2000,0.000270354
633.0000,0.000270832
632.8000,0.00026934
632.6000,0.000262952
632.4000,0.000262355
632.2000,0.000260385
632.0000,0.000259132
631.8000,0.000258953
631.6000,0.000256744
631.4000,0.000259012
631.2000,0.000260147
631.0000,0.000263549
630.8000,0.000266892
630.6000,0.000270354
630.4000,0.000274891
630.2000,0.000274354
630.0000,0.000273697
629.8000,0.000275906
629.6000,0.000278353
629.4000,0.000281875
629.2000,0.000287069
629.0000,0.00029077
628.8000,0.000294113
628.6000,0.000295187
628.4000,0.000301634
628.2000,0.000300261
628.0000,0.0003005
627.8000,0.000303186
627.6000,0.000302291
627.4000,0.000301813
627.2000,0.000307126
627.0000,0.000309215
626.8000,0.000312976
626.6000,0.000313394
626.4000,0.000314229
626.2000,0.000314468
626.0000,0.000315125
625.8000,0.000319124
625.6000,0.000318945
625.4000,0.000322467
625.2000,0.000322646
625.0000,0.000326706
624.8000,0.000326765
624.6000,0.000325034
624.4000,0.000324198
624.2000,0.000324915
624.0000,0.000321393
623.8000,0.000319303
623.6000,0.000318587
623.4000,0.000321811
623.2000,0.000317393
623.0000,0.000318527
622.8000,0.000319662
622.6000,0.000317931
622.4000,0.000318408
622.2000,0.000317334
622.0000,0.000319781
621.8000,0.000321512
621.6000,0.00032396
621.4000,0.000329332
621.2000,0.000334406
621.0000,0.000340674
620.8000,0.000345987
620.6000,0.000351061
620.4000,0.000354642
620.2000,0.000352852
620.0000,0.000360851
619.8000,0.000363955
619.6000,0.000367715
619.4000,0.000370819
619.2000,0.000376132
619.0000,0.000373267
618.8000,0.000374162
618.6000,0.000370342
618.4000,0.000370163
618.2000,0.000371297
618.0000,0.000375058
617.8000,0.00037458
617.6000,0.000373685
617.4000,0.000376371
617.2000,0.000377923
617.0000,0.000380371
616.8000,0.000383057
616.6000,0.000382937
616.4000,0.000384728
616.2000,0.000387892
616.0000,0.000390817
615.8000,0.00039601
615.6000,0.000396488
615.4000,0.000401204
615.2000,0.000400368
615.0000,0.000400189
614.8000,0.000396249
614.6000,0.000393205
614.4000,0.00039613
614.2000,0.000393921
614.0000,0.000394876
613.8000,0.000393145
613.6000,0.000392727
613.4000,0.000393384
613.2000,0.000393205
613.0000,0.000391832
612.8000,0.000388728
612.6000,0.00038825
612.4000,0.000387176
612.2000,0.000389623
612.0000,0.000393205
611.8000,0.000394518
611.6000,0.000396906
611.4000,0.000400726
611.2000,0.000398935
611.0000,0.000402756
610.8000,0.000399174
610.6000,0.000401383
610.4000,0.000401801
610.2000,0.000401144
610.0000,0.000398279
609.8000,0.000396548
609.6000,0.000396727
609.4000,0.000395175
609.2000,0.000396488
609.0000,0.000395354
608.8000,0.000399174
608.6000,0.0003981
608.4000,0.000401681
608.2000,0.000401562
608.0000,0.000402219
607.8000,0.000402756
607.6000,0.000406099
607.4000,0.000409262
607.2000,0.000413501
607.0000,0.000416664
606.8000,0.000420246
606.6000,0.00042723
606.4000,0.000429499
606.2000,0.000432185
606.0000,0.000434035
605.8000,0.000432782
605.6000,0.000426514
605.4000,0.000429021
605.2000,0.000427111
605.0000,0.000427589
604.8000,0.000431886
604.6000,0.000430573
604.4000,0.000434991
604.2000,0.000437916
604.0000,0.00043899
603.8000,0.000441258
603.6000,0.000443885
603.4000,0.00044478
603.2000,0.00044681
603.0000,0.000449078
602.8000,0.000450153
602.6000,0.000456122
602.4000,0.000456182
602.2000,0.0004566
602.0000,0.000459107
601.8000,0.000461554
601.6000,0.000462151
601.4000,0.000465972
601.2000,0.000463942
601.0000,0.000461733
600.8000,0.00046042
600.6000,0.000462211
600.4000,0.000459764
600.2000,0.000457077
600.0000,0.000456839
599.8000,0.00045666
599.6000,0.00045654
599.4000,0.000457913
599.2000,0.000461733
599.0000,0.000463823
598.8000,0.000461375
598.6000,0.000461913
598.4000,0.000463465
598.2000,0.000464002
598.0000,0.00047027
597.8000,0.000473911
597.6000,0.000475344
597.4000,0.000475821
597.2000,0.000477194
597.0000,0.000482805
596.8000,0.000485372
596.6000,0.000490984
596.4000,0.000493252
596.2000,0.000491282
596.0000,0.000496475
595.8000,0.000498445
595.6000,0.000506265
595.4000,0.000507877
595.2000,0.00051116
595.0000,0.000513667
594.8000,0.000512294
594.6000,0.000513846
594.4000,0.000515876
594.2000,0.000516592
594.0000,0.000518144
593.8000,0.000518144
593.6000,0.000520353
593.4000,0.00052483
593.2000,0.000531755
593.0000,0.000537127
592.8000,0.000539157
592.6000,0.000540231
592.4000,0.00054053
592.2000,0.000545723
592.0000,0.000547335
591.8000,0.000550319
591.6000,0.000554379
591.4000,0.000557781
591.2000,0.000559154
591.0000,0.000563273
590.8000,0.000568228
590.6000,0.00057163
590.4000,0.000576585
590.2000,0.000576645
590.0000,0.000578197
589.8000,0.000579808
589.6000,0.00058148
589.4000,0.000586434
589.2000,0.000589359
589.0000,0.000591687
588.8000,0.000597358
588.6000,0.000604522
588.4000,0.000608342
588.2000,0.000612222
588.0000,0.000620102
587.8000,0.000626608
587.6000,0.00063419
587.4000,0.000639562
587.2000,0.000640637
587.0000,0.000647621
586.8000,0.000652337
586.6000,0.000657649
586.4000,0.000666663
586.2000,0.000672215
586.0000,0.000681169
585.8000,0.000688153
585.6000,0.000691317
585.4000,0.000692929
585.2000,0.000698838
585.0000,0.000704987
584.8000,0.000713284
584.6000,0.000714956
584.4000,0.000718776
584.2000,0.000728267
584.0000,0.000735431
583.8000,0.000736207
583.6000,0.000742713
583.4000,0.000746414
583.2000,0.00074916
583.0000,0.000755249
582.8000,0.000759129
582.6000,0.000763666
582.4000,0.000768442
582.2000,0.000776978
582.0000,0.000785275
581.8000,0.000793215
581.6000,0.000795065
581.4000,0.000805392
581.2000,0.000813033
581.0000,0.000810227
580.8000,0.000819241
580.6000,0.000830285
580.4000,0.000834583
580.2000,0.000842522
580.0000,0.000853088
579.8000,0.000858878
579.6000,0.000867474
579.4000,0.000875592
579.2000,0.000880547
579.0000,0.000888009
578.8000,0.000891173
578.6000,0.000896843
578.4000,0.000906991
578.2000,0.000916244
578.0000,0.000918154
577.8000,0.000929019
577.6000,0.000933973
577.4000,0.000939167
577.2000,0.000946688
577.0000,0.000957075
576.8000,0.000957791
576.6000,0.000962805
576.4000,0.000967999
576.2000,0.000974565
576.0000,0.000984295
575.8000,0.000990862
575.6000,0.000997249
575.4000,0.00100316
575.2000,0.00100567
575.0000,0.00101044
574.8000,0.00102125
574.6000,0.0010265
574.4000,0.00103348
574.2000,0.00103695
574.0000,0.00104077
573.8000,0.00104268
573.6000,0.001045
573.4000,0.00105139
573.2000,0.00105641
573.0000,0.00106166
572.8000,0.00106339
572.6000,0.00107228
572.4000,0.00108225
572.2000,0.00109067
572.0000,0.00110171
571.8000,0.00110691
571.6000,0.00111467
571.4000,0.00112392
571.2000,0.00113055
571.0000,0.00114177
570.8000,0.00115603
570.6000,0.00116714
570.4000,0.00118182
570.2000,0.00119108
570.0000,0.00119949
569.8000,0.00121173
569.6000,0.00122456
569.4000,0.00123113
569.2000,0.00124158
569.0000,0.0012522
568.8000,0.00126175
568.6000,0.00127393
568.4000,0.00128348
568.2000,0.00129094
568.0000,0.00130539
567.8000,0.00131631
567.6000,0.00132204
567.4000,0.0013307
567.2000,0.00134103
567.0000,0.00135171
566.8000,0.00136807
566.6000,0.00137857
566.4000,0.00139248
566.2000,0.00140138
566.0000,0.00140979
565.8000,0.0014203
565.6000,0.00142585
565.4000,0.00143701
565.2000,0.00144794
565.0000,0.00145934
564.8000,0.00146847
564.6000,0.00148137
564.4000,0.00149731
564.2000,0.00151378
564.0000,0.00152805
563.8000,0.00154369
563.6000,0.00154966
563.4000,0.00155688
563.2000,0.00157031
563.0000,0.00158112
562.8000,0.00159795
562.6000,0.00161281
562.4000,0.00162672
562.2000,0.00163884
562.0000,0.00165185
561.8000,0.00166845
561.6000,0.00168278
561.4000,0.00169901
561.2000,0.00171244
561.0000,0.00172725
560.8000,0.00174295
560.6000,0.00175733
560.4000,0.00177918
560.2000,0.00179846
560.0000,0.00181327
559.8000,0.00183571
559.6000,0.00184926
559.4000,0.00186359
559.2000,0.00188788
559.0000,0.0019083
558.8000,0.00192788
558.6000,0.00194919
558.4000,0.00197241
558.2000,0.00198626
558.0000,0.00200339
557.8000,0.002021
557.6000,0.00204494
557.4000,0.00206589
557.2000,0.00208637
557.0000,0.00210845
556.8000,0.00213191
556.6000,0.00215245
556.4000,0.00217197
556.2000,0.00219429
556.0000,0.00221644
555.8000,0.00223692
555.6000,0.00225876
555.4000,0.00227792
555.2000,0.00229798
555.0000,0.00232162
554.8000,0.0023449
554.6000,0.00236741
554.4000,0.00238209
554.2000,0.00239904
554.0000,0.00241558
553.8000,0.00243438
553.6000,0.00245384
553.4000,0.0024736
553.2000,0.00249444
553.0000,0.00251431
552.8000,0.00253742
552.6000,0.00256076
552.4000,0.00258815
552.2000,0.00261042
552.0000,0.00263167
551.8000,0.00265907
551.6000,0.00268468
551.4000,0.0027085
551.2000,0.00273184
551.0000,0.00276354
550.8000,0.00279464
550.6000,0.00282478
550.4000,0.00285045
550.2000,0.00287773
550.0000,0.00291044
549.8000,0.00294184
549.6000,0.00296924
549.4000,0.00299831
549.2000,0.00302177
549.0000,0.00305359
548.8000,0.00308421
548.6000,0.00311239
548.4000,0.00313668
548.2000,0.00316355
548.0000,0.00319805
547.8000,0.00322533
547.6000,0.00325571
547.4000,0.0032855
547.2000,0.00331809
547.0000,0.00335272
546.8000,0.00338692
546.6000,0.00341796
546.4000,0.00344853
546.2000,0.00348386
546.0000,0.00352177
545.8000,0.00355645
545.6000,0.00359466
545.4000,0.00362755
545.2000,0.00366975
545.0000,0.00370778
544.8000,0.00374592
544.6000,0.00378466
544.4000,0.00382591
544.2000,0.00386632
544.0000,0.00390775
543.8000,0.00394697
543.6000,0.00398225
543.4000,0.0040223
543.2000,0.00406296
543.0000,0.00409841
542.8000,0.00413548
542.6000,0.00417864
542.4000,0.00421685
542.2000,0.00426233
542.0000,0.00430239
541.8000,0.00434823
541.6000,0.00438829
541.4000,0.00443013
541.2000,0.00447055
541.0000,0.00451532
540.8000,0.00455866
540.6000,0.00460044
540.4000,0.00465041
540.2000,0.00470019
540.0000,0.00474747
539.8000,0.00480042
539.6000,0.00484925
539.4000,0.00489814
539.2000,0.00495061
539.0000,0.00500081
538.8000,0.00505477
538.6000,0.00510796
538.4000,0.0051627
538.2000,0.00521678
538.0000,0.00527087
537.8000,0.00532286
537.6000,0.00537628
537.4000,0.00543419
537.2000,0.00548487
537.0000,0.00553621
536.8000,0.00559644
536.6000,0.00565058
536.4000,0.00570968
536.2000,0.00576436
536.0000,0.00581993
535.8000,0.00587604
535.6000,0.00593395
535.4000,0.00599275
535.2000,0.00605357
535.0000,0.00611154
534.8000,0.00617213
534.6000,0.006236
534.4000,0.0062973
534.2000,0.00635682
534.0000,0.00642427
533.8000,0.00649083
533.6000,0.00655369
533.4000,0.00662114
533.2000,0.00669009
533.0000,0.0067619
532.8000,0.0068324
532.6000,0.00690571
532.4000,0.00697818
532.2000,0.00704724
532.0000,0.00711732
531.8000,0.00719331
531.6000,0.00726954
531.4000,0.0073407
531.2000,0.00741902
531.0000,0.00749865
530.8000,0.00757518
530.6000,0.00765164
530.4000,0.00773062
530.2000,0.00781192
530.0000,0.00789251
529.8000,0.00797459
529.6000,0.0080541
529.4000,0.0081354
529.2000,0.00821838
529.0000,0.00830476
528.8000,0.00839107
528.6000,0.0084719
528.4000,0.00855255
528.2000,0.0086443
528.0000,0.0087259
527.8000,0.00881305
527.6000,0.00890229
527.4000,0.00899518
527.2000,0.00908072
527.0000,0.00917098
526.8000,0.00926052
526.6000,0.00935645
526.4000,0.00944963
526.2000,0.00954084
526.0000,0.00963599
525.8000,0.00973222
525.6000,0.00983167
525.4000,0.00993673
525.2000,0.0100402
525.0000,0.0101411
524.8000,0.0102513
524.6000,0.0103552
524.4000,0.0104594
524.2000,0.0105613
524.0000,0.0106694
523.8000,0.0107723
523.6000,0.0108798
523.4000,0.0109815
523.2000,0.0110902
523.0000,0.0111982
522.8000,0.0113081
522.6000,0.0114213
522.4000,0.0115294
522.2000,0.0116443
522.0000,0.0117588
521.8000,0.0118737
521.6000,0.0119875
521.4000,0.0121049
521.2000,0.012226
521.0000,0.0123487
520.8000,0.0124763
520.6000,0.0126045
520.4000,0.0127311
520.2000,0.012861
520.0000,0.0129934
519.8000,0.0131263
519.6000,0.0132551
519.4000,0.0133866
519.2000,0.0135249
519.0000,0.0136555
518.8000,0.0137888
518.6000,0.0139214
518.4000,0.014059
518.2000,0.0141992
518.0000,0.0143371
517.8000,0.01448
517.6000,0.0146157
517.4000,0.0147561
517.2000,0.0148924
517.0000,0.0150274
516.8000,0.0151692
516.6000,0.015315
516.4000,0.0154659
516.2000,0.0156129
516.0000,0.0157539
515.8000,0.0159067
515.6000,0.0160578
515.4000,0.0162116
515.2000,0.0163697
515.0000,0.0165267
514.8000,0.0166881
514.6000,0.0168461
514.4000,0.0170084
514.2000,0.017171
514.0000,0.0173405
513.8000,0.0175103
513.6000,0.0176785
513.4000,0.0178491
513.2000,0.0180219
513.0000,0.0181967
512.8000,0.0183769
512.6000,0.0185507
512.4000,0.0187322
512.2000,0.0189149
512.0000,0.0190921
511.8000,0.0192726
511.6000,0.0194471
511.4000,0.0196279
511.2000,0.0198124
511.0000,0.0199921
510.8000,0.0201771
510.6000,0.0203633
510.4000,0.0205497
510.2000,0.0207368
510.0000,0.0209252
509.8000,0.0211123
509.6000,0.0213085
509.4000,0.0215044
509.2000,0.0216954
509.0000,0.021888
508.8000,0.0220864
508.6000,0.0222853
508.4000,0.0224912
508.2000,0.0226977
508.0000,0.0229008
507.8000,0.02312
507.6000,0.0233349
507.4000,0.0235509
507.2000,0.0237653
507.0000,0.0239795
506.8000,0.0241941
506.6000,0.0244139
506.4000,0.0246303
506.2000,0.0248474
506.0000,0.025072
505.8000,0.0253045
505.6000,0.0255323
505.4000,0.0257662
505.2000,0.0259962
505.0000,0.0262262
504.8000,0.0264608
504.6000,0.0266877
504.4000,0.0269206
504.2000,0.0271565
504.0000,0.0273934
503.8000,0.0276329
503.6000,0.0278813
503.4000,0.0281273
503.2000,0.0283731
503.0000,0.0286243
502.8000,0.0288718
502.6000,0.0291146
502.4000,0.0293631
502.2000,0.0296115
502.0000,0.0298662
501.8000,0.030124
501.6000,0.0303857
501.4000,0.0306539
501.2000,0.0309145
501.0000,0.0311767
500.8000,0.0314464
500.6000,0.0317098
500.4000,0.0319707
500.2000,0.0322371
500.0000,0.0327075
499.8000,0.0329779
499.6000,0.0332602
499.4000,0.0335362
499.2000,0.0338167
499.0000,0.0340965
498.8000,0.0343714
498.6000,0.0346541
498.4000,0.0349318
498.2000,0.0352052
498.0000,0.0354857
497.8000,0.0357813
497.6000,0.036076
497.4000,0.0363577
497.2000,0.0366611
497.0000,0.0369544
496.8000,0.037247
496.6000,0.0375499
496.4000,0.037839
496.2000,0.0381357
496.0000,0.0384406
495.8000,0.0387419
495.6000,0.039049
495.4000,0.0393568
495.2000,0.0396621
495.0000,0.0399737
494.8000,0.0402904
494.6000,0.0406035
494.4000,0.0409135
494.2000,0.041234
494.0000,0.0415416
493.8000,0.0418561
493.6000,0.0421777
493.4000,0.0424921
493.2000,0.0428245
493.0000,0.0431562
492.8000,0.043485
492.6000,0.0438111
492.4000,0.0441446
492.2000,0.0444737
492.0000,0.0448137
491.8000,0.0451539
491.6000,0.0454896
491.4000,0.045829
491.2000,0.0461754
491.0000,0.0465248
490.8000,0.0468725
490.6000,0.0472189
490.4000,0.0475649
490.2000,0.0479189
490.0000,0.0482656
489.8000,0.048617
489.6000,0.048972
489.4000,0.049333
489.2000,0.0496895
489.0000,0.0500424
488.8000,0.0504032
488.6000,0.050766
488.4000,0.0511362
488.2000,0.0515009
488.0000,0.0518571
487.8000,0.052222
487.6000,0.0525939
487.4000,0.0529701
487.2000,0.0533512
487.0000,0.053727
486.8000,0.0541072
486.6000,0.0544815
486.4000,0.0548564
486.2000,0.055232
486.0000,0.0556123
485.8000,0.0560041
485.6000,0.0563819
485.4000,0.056765
485.2000,0.0571463
485.0000,0.0575369
484.8000,0.0579241
484.6000,0.0583132
484.4000,0.0587067
484.2000,0.0590992
484.0000,0.0594842
483.8000,0.0598793
483.6000,0.0602756
483.4000,0.0606692
483.2000,0.0610674
483.0000,0.0614676
482.8000,0.0618772
482.6000,0.062265
482.4000,0.0626661
482.2000,0.063078
482.0000,0.0634794
481.8000,0.0638777
481.6000,0.0642922
481.4000,0.0647039
481.2000,0.0651074
481.0000,0.0655228
480.8000,0.0659247
480.6000,0.0663244
480.4000,0.0667355
480.2000,0.0671514
480.0000,0.0675623
479.8000,0.0679688
479.6000,0.0683619
479.4000,0.0687843
479.2000,0.0691988
479.0000,0.0695994
478.8000,0.0700129
478.6000,0.0704278
478.4000,0.0708377
478.2000,0.0712496
478.0000,0.0716689
477.8000,0.0720817
477.6000,0.0725154
477.4000,0.0729445
477.2000,0.0733629
477.0000,0.0737789
476.8000,0.0742028
476.6000,0.0746291
476.4000,0.0750692
476.2000,0.0754895
476.0000,0.0759094
475.8000,0.0763406
475.6000,0.0767682
475.4000,0.0772014
475.2000,0.0776294
475.0000,0.0780505
474.8000,0.0784624
474.6000,0.0788823
474.4000,0.0793008
474.2000,0.079717
474.0000,0.0801361
473.8000,0.0805595
473.6000,0.0809809
473.4000,0.0813996
473.2000,0.0818149
473.0000,0.0822446
472.8000,0.0826759
472.6000,0.0830994
472.4000,0.0835196
472.2000,0.0839412
472.0000,0.0843589
471.8000,0.0847827
471.6000,0.0852097
471.4000,0.0856315
471.2000,0.0860543
471.0000,0.0864881
470.8000,0.0869164
470.6000,0.0873405
470.4000,0.0877601
470.2000,0.0881817
470.0000,0.0885912
469.8000,0.0890069
469.6000,0.0894162
469.4000,0.0898277
469.2000,0.0902452
469.0000,0.0906619
468.8000,0.0910834
468.6000,0.0915008
468.4000,0.0919193
468.2000,0.092338
468.0000,0.0927452
467.8000,0.0931484
467.6000,0.0935559
467.4000,0.0939615
467.2000,0.0943632
467.0000,0.094774
466.8000,0.0951964
466.6000,0.0955966
466.4000,0.0960032
466.2000,0.096407
466.0000,0.0968059
465.8000,0.0972129
465.6000,0.0976056
465.4000,0.0979961
465.2000,0.0983875
465.0000,0.0987848
464.8000,0.0991894
464.6000,0.0995841
464.4000,0.099982
464.2000,0.100375
464.0000,0.100776
463.8000,0.101165
463.6000,0.101545
463.4000,0.101934
463.2000,0.102323
463.0000,0.102713
462.8000,0.103106
462.6000,0.10348
462.4000,0.103865
462.2000,0.104246
462.0000,0.10463
461.8000,0.104996
461.6000,0.105351
461.4000,0.105719
461.2000,0.106064
461.0000,0.106429
460.8000,0.106785
460.6000,0.107143
460.4000,0.107502
460.2000,0.107857
460.0000,0.108205
459.8000,0.108552
459.6000,0.108894
459.4000,0.109234
459.2000,0.109578
459.0000,0.10992
458.8000,0.110259
458.6000,0.110598
458.4000,0.110941
458.2000,0.111261
458.0000,0.111614
457.8000,0.111944
457.6000,0.112267
457.4000,0.112586
457.2000,0.112904
457.0000,0.113208
456.8000,0.113525
456.6000,0.113824
456.4000,0.114135
456.2000,0.114436
456.0000,0.114725
455.8000,0.115012
455.6000,0.115297
455.4000,0.115577
455.2000,0.115856
455.0000,0.116142
454.8000,0.116412
454.6000,0.11668
454.4000,0.116948
454.2000,0.117217
454.0000,0.117482
453.8000,0.117755
453.6000,0.118002
453.4000,0.118262
453.2000,0.118494
453.0000,0.118748
452.8000,0.119008
452.6000,0.119263
452.4000,0.119496
452.2000,0.11974
452.0000,0.119982
451.8000,0.120215
451.6000,0.120443
451.4000,0.120662
451.2000,0.12088
451.0000,0.121101
450.8000,0.121309
450.6000,0.121515
450.4000,0.12172
450.2000,0.121912
450.0000,0.12211
449.8000,0.122294
449.6000,0.12247
449.4000,0.122645
449.2000,0.122825
449.0000,0.122994
448.8000,0.123156
448.6000,0.123314
448.4000,0.123467
448.2000,0.123618
448.0000,0.123778
447.8000,0.123923
447.6000,0.124063
447.4000,0.124195
447.2000,0.124341
447.0000,0.124483
446.8000,0.124621
446.6000,0.124743
446.4000,0.124858
446.2000,0.124975
446.0000,0.125087
445.8000,0.125185
445.6000,0.125286
445.4000,0.125381
445.2000,0.125473
445.0000,0.125578
444.8000,0.125656
444.6000,0.125736
444.4000,0.125814
444.2000,0.125896
444.0000,0.125955
443.8000,0.126024
443.6000,0.126079
443.4000,0.126137
443.2000,0.126195
443.0000,0.126245
442.8000,0.12629
442.6000,0.126341
442.4000,0.126379
442.2000,0.126414
442.0000,0.126444
441.8000,0.12647
441.6000,0.126483
441.4000,0.126501
441.2000,0.126512
441.0000,0.126509
440.8000,0.126516
440.6000,0.126492
440.4000,0.126481
440.2000,0.126466
440.0000,0.12645
439.8000,0.126412
439.6000,0.126381
439.4000,0.12635
439.2000,0.126314
439.0000,0.126269
438.8000,0.126214
438.6000,0.126161
438.4000,0.126098
438.2000,0.126025
438.0000,0.125968
437.8000,0.125902
437.6000,0.125812
437.4000,0.125747
437.2000,0.125666
437.0000,0.125579
436.8000,0.125485
436.6000,0.125395
436.4000,0.125309
436.2000,0.125191
436.0000,0.125062
435.8000,0.124954
435.6000,0.124831
435.4000,0.124703
435.2000,0.124586
435.0000,0.124458
434.8000,0.124306
434.6000,0.124169
434.4000,0.12404
434.2000,0.123889
434.0000,0.123732
433.8000,0.123568
433.6000,0.123404
433.4000,0.123233
433.2000,0.123051
433.0000,0.122889
432.8000,0.122719
432.6000,0.122536
432.4000,0.122369
432.2000,0.122172
432.0000,0.121987
431.8000,0.121797
431.6000,0.121605
431.4000,0.121402
431.2000,0.121192
431.0000,0.120995
430.8000,0.12078
430.6000,0.120555
430.4000,0.120331
430.2000,0.120126
430.0000,0.119896
429.8000,0.11966
429.6000,0.119428
429.4000,0.119196
429.2000,0.11894
429.0000,0.118691
428.8000,0.118435
428.6000,0.118175
428.4000,0.117923
428.2000,0.117657
428.0000,0.117409
427.8000,0.117135
427.6000,0.116893
427.4000,0.11665
427.2000,0.1164
427.0000,0.116135
426.8000,0.115867
426.6000,0.115599
426.4000,0.115322
426.2000,0.115046
426.0000,0.114799
425.8000,0.11453
425.6000,0.114257
425.4000,0.113972
425.2000,0.113706
425.0000,0.113431
424.8000,0.113135
424.6000,0.112852
424.4000,0.112557
424.2000,0.112251
424.0000,0.111939
423.8000,0.111632
423.6000,0.111345
423.4000,0.111048
423.2000,0.110777
423.0000,0.110484
422.8000,0.110158
422.6000,0.109854
422.4000,0.109569
422.2000,0.10929
422.0000,0.108965
421.8000,0.108652
421.6000,0.108351
421.4000,0.108052
421.2000,0.107741
421.0000,0.107475
420.8000,0.107248
420.6000,0.107052
420.4000,0.106843
420.2000,0.106595
420.0000,0.10636
419.8000,0.106142
419.6000,0.105929
419.4000,0.105758
419.2000,0.105552
419.0000,0.105352
418.8000,0.105172
418.6000,0.105
418.4000,0.104735
418.2000,0.104411
418.0000,0.104083
417.8000,0.103705
417.6000,0.103289
417.4000,0.102831
417.2000,0.102389
417.0000,0.102007
416.8000,0.101581
416.6000,0.101162
416.4000,0.100755
416.2000,0.10031
416.0000,0.0998655
415.8000,0.0994275
415.6000,0.0989933
415.4000,0.098564
415.2000,0.0982163
415.0000,0.0979339
414.8000,0.0976699
414.6000,0.0974126
414.4000,0.0971674
414.2000,0.0969093
414.0000,0.0966503
413.8000,0.0963732
413.6000,0.0961321
413.4000,0.0958876
413.2000,0.0956286
413.0000,0.0953884
412.8000,0.095162
412.6000,0.0948959
412.4000,0.0946935
412.2000,0.0944652
412.0000,0.0942613
411.8000,0.0940811
411.6000,0.0938993
411.4000,0.0937332
411.2000,0.0935706
411.0000,0.0934472
410.8000,0.093354
410.6000,0.0932665
410.4000,0.0931621
410.2000,0.0930401
410.0000,0.0929571
409.8000,0.0928931
409.6000,0.0928108
409.4000,0.0928051
409.2000,0.0927341
409.0000,0.0926868
408.8000,0.0926839
408.6000,0.0926891
408.4000,0.0927004
408.2000,0.0927237
408.0000,0.0927372
407.8000,0.0927697
407.6000,0.0927871
407.4000,0.0928645
407.2000,0.0929535
407.0000,0.0930602
406.8000,0.0931799
406.6000,0.0932521
406.4000,0.0933968
406.2000,0.0935598
406.0000,0.0937778
405.8000,0.0939726
405.6000,0.0941717
405.4000,0.0943263
405.2000,0.0945255
405.0000,0.0947554
404.8000,0.0950473
404.6000,0.0953161
404.4000,0.0955983
404.2000,0.0959212
404.0000,0.0962255
403.8000,0.0965856
403.6000,0.0969819
403.4000,0.0974088
403.2000,0.0978123
403.0000,0.0982096
402.8000,0.0986257
402.6000,0.0990976
402.4000,0.0995887
402.2000,0.100143
402.0000,0.100656
401.8000,0.101262
401.6000,0.101859
401.4000,0.102466
401.2000,0.103102
401.0000,0.10373
400.8000,0.104493
400.6000,0.105225
400.4000,0.105939
400.2000,0.106701
400.0000,0.103771
399.8000,0.104587
399.6000,0.105417
399.4000,0.106299
399.2000,0.10718
399.0000,0.108087
398.8000,0.109046
398.6000,0.110027
398.4000,0.111043
398.2000,0.112103
398.0000,0.1132
397.8000,0.114303
397.6000,0.11544
397.4000,0.116644
397.2000,0.11787
397.0000,0.119137
396.8000,0.120431
396.6000,0.121768
396.4000,0.123133
396.2000,0.124532
396.0000,0.125986
395.8000,0.127474
395.6000,0.128987
395.4000,0.130542
395.2000,0.13216
395.0000,0.133807
394.8000,0.135514
394.6000,0.137266
394.4000,0.139085
394.2000,0.140927
394.0000,0.142799
393.8000,0.144739
393.6000,0.146722
393.4000,0.148755
393.2000,0.150835
393.0000,0.152969
392.8000,0.15513
392.6000,0.157373
392.4000,0.15968
392.2000,0.162021
392.0000,0.164411
391.8000,0.166857
391.6000,0.169338
391.4000,0.171867
391.2000,0.174451
391.0000,0.177083
390.8000,0.179767
390.6000,0.182487
390.4000,0.185298
390.2000,0.188128
390.0000,0.191022
389.8000,0.193964
389.6000,0.196983
389.4000,0.200045
389.2000,0.203128
389.0000,0.206278
388.8000,0.209471
388.6000,0.212739
388.4000,0.216046
388.2000,0.219405
388.0000,0.222823
387.8000,0.226287
387.6000,0.229815
387.4000,0.233386
387.2000,0.236996
387.0000,0.240671
386.8000,0.244409
386.6000,0.248215
386.4000,0.25206
386.2000,0.255955
386.0000,0.25992
385.8000,0.263942
385.6000,0.268009
385.4000,0.27209
385.2000,0.276245
385.0000,0.280433
384.8000,0.284688
384.6000,0.288981
384.4000,0.293305
384.2000,0.297702
384.0000,0.302138
383.8000,0.306594
383.6000,0.311087
383.4000,0.315602
383.2000,0.320174
383.0000,0.32474
382.8000,0.329366
382.6000,0.334042
382.4000,0.338744
382.2000,0.343464
382.0000,0.348238
381.8000,0.353044
381.6000,0.357826
381.4000,0.362629
381.2000,0.367483
381.0000,0.372349
380.8000,0.377218
380.6000,0.382135
380.4000,0.387058
380.2000,0.392007
380.0000,0.396917
379.8000,0.40189
379.6000,0.406842
379.4000,0.411799
379.2000,0.416752
379.0000,0.421709
378.8000,0.426619
378.6000,0.431536
378.4000,0.436458
378.2000,0.441385
378.0000,0.446278
377.8000,0.451169
377.6000,0.456057
377.4000,0.460901
377.2000,0.465742
377.0000,0.470529
376.8000,0.475333
376.6000,0.480078
376.4000,0.484813
376.2000,0.489501
376.0000,0.494176
375.8000,0.498827
375.6000,0.503447
375.4000,0.508049
375.2000,0.512629
375.0000,0.517186
374.8000,0.521708
374.6000,0.526152
374.4000,0.530562
374.2000,0.534983
374.0000,0.5393
373.8000,0.5436
373.6000,0.547849
373.4000,0.552078
373.2000,0.556295
373.0000,0.560448
372.8000,0.564565
372.6000,0.568677
372.4000,0.572731
372.2000,0.576707
372.0000,0.580611
371.8000,0.584478
371.6000,0.588316
371.4000,0.592137
371.2000,0.595921
371.0000,0.599615
370.8000,0.603364
370.6000,0.607048
370.4000,0.610711
370.2000,0.614358
370.0000,0.618608
369.8000,0.622149
369.6000,0.62563
369.4000,0.629077
369.2000,0.632465
369.0000,0.635857
368.8000,0.639307
368.6000,0.642583
368.4000,0.645899
368.2000,0.649189
368.0000,0.652479
367.8000,0.655712
367.6000,0.658928
367.4000,0.66214
367.2000,0.665286
367.0000,0.668471
366.8000,0.671648
366.6000,0.674764
366.4000,0.677802
366.2000,0.680938
366.0000,0.683987
365.8000,0.687078
365.6000,0.69013
365.4000,0.69318
365.2000,0.696227
365.0000,0.699231
364.8000,0.702238
364.6000,0.705285
364.4000,0.708331
364.2000,0.711304
364.0000,0.714324
363.8000,0.717235
363.6000,0.720218
363.4000,0.723185
363.2000,0.726205
363.0000,0.729134
362.8000,0.732109
362.6000,0.735012
362.4000,0.737978
362.2000,0.740924
362.0000,0.743835
361.8000,0.746804
361.6000,0.749712
361.4000,0.75257
361.2000,0.755384
361.0000,0.758229
360.8000,0.761011
360.6000,0.76387
360.4000,0.766679
360.2000,0.769467
360.0000,0.772204
359.8000,0.774978
359.6000,0.777676
359.4000,0.780361
359.2000,0.783024
359.0000,0.785642
358.8000,0.788199
358.6000,0.790703
358.4000,0.79326
358.2000,0.795722
358.0000,0.798189
357.8000,0.800615
357.6000,0.803005
357.4000,0.80534
357.2000,0.807624
357.0000,0.809811
356.8000,0.812001
356.6000,0.814057
356.4000,0.816112
356.2000,0.818068
356.0000,0.819955
355.8000,0.821863
355.6000,0.823763
355.4000,0.82547
355.2000,0.827147
355.0000,0.828769
354.8000,0.830357
354.6000,0.831796
354.4000,0.833254
354.2000,0.834613
354.0000,0.835905
353.8000,0.837188
353.6000,0.838361
353.4000,0.839499
353.2000,0.840568
353.0000,0.841578
352.8000,0.842503
352.6000,0.843347
352.4000,0.844115
352.2000,0.844844
352.0000,0.845461
351.8000,0.846059
351.6000,0.846583
351.4000,0.847056
351.2000,0.847408
351.0000,0.847726
350.8000,0.84793
350.6000,0.848096
350.4000,0.848195
350.2000,0.848284
350.0000,0.848303
349.8000,0.848311
349.6000,0.848262
349.4000,0.848125
349.2000,0.847973
349.0000,0.847834
348.8000,0.847615
348.6000,0.847315
348.4000,0.846987
348.2000,0.846714
348.0000,0.846358
347.8000,0.845954
347.6000,0.845508
347.4000,0.844986
347.2000,0.844503
347.0000,0.843977
346.8000,0.84342
346.6000,0.842834
346.4000,0.842242
346.2000,0.841646
346.0000,0.84095
345.8000,0.840315
345.6000,0.839646
345.4000,0.838989
345.2000,0.838287
345.0000,0.837557
344.8000,0.83685
344.6000,0.836114
344.4000,0.835406
344.2000,0.834743
344.0000,0.834065
343.8000,0.833367
343.6000,0.832608
343.4000,0.831869
343.2000,0.831099
343.0000,0.830277
342.8000,0.82954
342.6000,0.828709
342.4000,0.827906
342.2000,0.827102
342.0000,0.826293
341.8000,0.825474
341.6000,0.824656
341.4000,0.823873
341.2000,0.82303
341.0000,0.822263
340.8000,0.821397
340.6000,0.82046
340.4000,0.819598
340.2000,0.8187
340.0000,0.808046
339.8000,0.807282
339.6000,0.806426
339.4000,0.805575
339.2000,0.804705
339.0000,0.803787
338.8000,0.802865
338.6000,0.801987
338.4000,0.800967
338.2000,0.799908
338.0000,0.798855
337.8000,0.797708
337.6000,0.796604
337.4000,0.795403
337.2000,0.794282
337.0000,0.793145
336.8000,0.791877
336.6000,0.790642
336.4000,0.789458
336.2000,0.788082
336.0000,0.786746
335.8000,0.785462
335.6000,0.784079
335.4000,0.782678
335.2000,0.781302
335.0000,0.779821
334.8000,0.778227
334.6000,0.776738
334.4000,0.775164
334.2000,0.773646
334.0000,0.771966
333.8000,0.770286
333.6000,0.768581
333.4000,0.766833
333.2000,0.765009
333.0000,0.763164
332.8000,0.76132
332.6000,0.75944
332.4000,0.757566
332.2000,0.75567
332.0000,0.753722
331.8000,0.751778
331.6000,0.749871
331.4000,0.747903
331.2000,0.745864
331.0000,0.743833
330.8000,0.741826
330.6000,0.739762
330.4000,0.737818
330.2000,0.735785
330.0000,0.733698
329.8000,0.731686
329.6000,0.729646
329.4000,0.727555
329.2000,0.725453
329.0000,0.723309
328.8000,0.721292
328.6000,0.719179
328.4000,0.717135
328.2000,0.715092
328.0000,0.713127
327.8000,0.711045
327.6000,0.709065
327.4000,0.707118
327.2000,0.704965
327.0000,0.702887
326.8000,0.700864
326.6000,0.698768
326.4000,0.696728
326.2000,0.694661
326.0000,0.692661
325.8000,0.69064
325.6000,0.68862
325.4000,0.686577
325.2000,0.684481
325.0000,0.682413
324.8000,0.680375
324.6000,0.678394
324.4000,0.676279
324.2000,0.674121
324.0000,0.672041
323.8000,0.670031
323.6000,0.668031
323.4000,0.66607
323.2000,0.664063
323.0000,0.662016
322.8000,0.659975
322.6000,0.657906
322.4000,0.655718
322.2000,0.653707
322.0000,0.651631
321.8000,0.6496
321.6000,0.647462
321.4000,0.645339
321.2000,0.643267
321.0000,0.64116
320.8000,0.639094
320.6000,0.63694
320.4000,0.634854
320.2000,0.63265
320.0000,0.630477
319.8000,0.62839
319.6000,0.62625
319.4000,0.624162
319.2000,0.622152
319.0000,0.62
318.8000,0.617858
318.6000,0.615669
318.4000,0.613546
318.2000,0.611415
318.0000,0.609199
317.8000,0.607093
317.6000,0.60499
317.4000,0.602862
317.2000,0.600676
317.0000,0.598573
316.8000,0.596442
316.6000,0.594223
316.4000,0.592049
316.2000,0.589873
316.0000,0.587664
315.8000,0.585566
315.6000,0.583478
315.4000,0.581348
315.2000,0.579192
315.0000,0.577069
314.8000,0.575019
314.6000,0.572978
314.4000,0.570857
314.2000,0.568779
314.0000,0.566668
313.8000,0.56456
313.6000,0.562467
313.4000,0.560428
313.2000,0.558421
313.0000,0.556342
312.8000,0.554297
312.6000,0.552203
312.4000,0.550169
312.2000,0.548127
312.0000,0.54604
311.8000,0.543939
311.6000,0.541897
311.4000,0.539797
311.2000,0.537789
311.0000,0.535751
310.8000,0.533812
310.6000,0.531773
310.4000,0.529706
310.2000,0.527681
310.0000,0.525562
309.8000,0.523563
309.6000,0.521565
309.4000,0.519588
309.2000,0.517565
309.0000,0.51564
308.8000,0.513688
308.6000,0.511779
308.4000,0.509781
308.2000,0.507808
308.0000,0.505829
307.8000,0.503872
307.6000,0.501892
307.4000,0.500107
307.2000,0.498183
307.0000,0.496281
306.8000,0.494512
306.6000,0.492603
306.4000,0.49073
306.2000,0.488827
306.0000,0.486971
305.8000,0.485072
305.6000,0.483208
305.4000,0.481334
305.2000,0.479523
305.0000,0.477725
304.8000,0.475879
304.6000,0.474082
304.4000,0.472247
304.2000,0.470379
304.0000,0.468642
303.8000,0.466855
303.6000,0.465027
303.4000,0.463281
303.2000,0.461496
303.0000,0.459741
302.8000,0.457951
302.6000,0.456209
302.4000,0.454532
302.2000,0.452779
302.0000,0.45105
301.8000,0.449267
301.6000,0.44759
301.4000,0.445888
301.2000,0.444203
301.0000,0.442478
300.8000,0.440766
300.6000,0.439108
300.4000,0.437401
300.2000,0.435697
300.0000,0.433991
299.8000,0.432364
299.6000,0.430824
299.4000,0.429195
299.2000,0.427547
299.0000,0.426071
298.8000,0.424483
298.6000,0.423033
298.4000,0.421473
298.2000,0.420025
298.0000,0.418577
297.8000,0.417134
297.6000,0.415723
297.4000,0.414264
297.2000,0.412946
297.0000,0.411653
296.8000,0.410381
296.6000,0.409003
296.4000,0.40769
296.2000,0.406443
296.0000,0.405216
295.8000,0.403902
295.6000,0.402709
295.4000,0.401474
295.2000,0.400364
295.0000,0.399172
294.8000,0.398056
294.6000,0.396923
294.4000,0.395819
294.2000,0.394781
294.0000,0.393625
293.8000,0.392503
293.6000,0.391385
293.4000,0.390369
293.2000,0.389346
293.0000,0.388347
292.8000,0.387359
292.6000,0.386383
292.4000,0.385413
292.2000,0.384411
292.0000,0.38339
291.8000,0.382417
291.6000,0.381417
291.4000,0.380395
291.2000,0.379444
291.0000,0.378453
290.8000,0.377485
290.6000,0.376504
290.4000,0.37557
290.2000,0.374632
290.0000,0.37361
289.8000,0.37259
289.6000,0.371543
289.4000,0.370559
289.2000,0.369549
289.0000,0.368535
288.8000,0.367574
288.6000,0.366531
288.4000,0.365465
288.2000,0.364482
288.0000,0.363444
287.8000,0.362452
287.6000,0.361407
287.4000,0.36036
287.2000,0.35927
287.0000,0.358153
286.8000,0.357068
286.6000,0.355958
286.4000,0.354867
286.2000,0.353702
286.0000,0.352542
285.8000,0.3514
285.6000,0.350181
285.4000,0.349042
285.2000,0.347858
285.0000,0.346732
284.8000,0.345503
284.6000,0.344232
284.4000,0.343038
284.2000,0.341839
284.0000,0.340604
283.8000,0.33941
283.6000,0.338218
283.4000,0.337023
283.2000,0.335831
283.0000,0.334689
282.8000,0.333522
282.6000,0.332365
282.4000,0.331202
282.2000,0.330026
282.0000,0.32893
281.8000,0.327788
281.6000,0.32669
281.4000,0.325626
281.2000,0.324501
281.0000,0.323436
280.8000,0.322441
280.6000,0.321485
280.4000,0.320503
280.2000,0.31953
280.0000,0.31859
279.8000,0.317649
279.6000,0.31684
279.4000,0.316028
279.2000,0.315219
279.0000,0.314503
278.8000,0.313754
278.6000,0.313113
278.4000,0.312543
278.2000,0.311972
278.0000,0.311492
277.8000,0.311096
277.6000,0.310788
277.4000,0.310451
277.2000,0.31016
277.0000,0.309946
276.8000,0.30984
276.6000,0.309795
276.4000,0.309725
276.2000,0.309761
276.0000,0.309903
275.8000,0.310092
275.6000,0.31037
275.4000,0.310698
275.2000,0.311048
275.0000,0.311557
274.8000,0.312123
274.6000,0.312721
274.4000,0.313384
274.2000,0.314143
274.0000,0.31504
273.8000,0.31602
273.6000,0.317118
273.4000,0.318273
273.2000,0.319531
273.0000,0.320852
272.8000,0.322277
272.6000,0.323737
272.4000,0.325328
272.2000,0.326961
272.0000,0.328745
271.8000,0.33058
271.6000,0.332509
271.4000,0.334531
271.2000,0.336574
271.0000,0.33877
270.8000,0.340996
270.6000,0.343323
270.4000,0.345655
270.2000,0.348123
270.0000,0.350646
269.8000,0.353304
269.6000,0.356014
269.4000,0.358785
269.2000,0.361625
269.0000,0.36459
268.8000,0.367543
268.6000,0.370564
268.4000,0.373667
268.2000,0.376791
268.0000,0.380051
267.8000,0.383259
267.6000,0.386583
267.4000,0.389955
267.2000,0.393394
267.0000,0.396811
266.8000,0.400328
266.6000,0.403858
266.4000,0.407441
266.2000,0.411097
266.0000,0.414801
265.8000,0.418489
265.6000,0.422283
265.4000,0.426076
265.2000,0.42995
265.0000,0.433888
264.8000,0.437824
264.6000,0.44182
264.4000,0.44586
264.2000,0.44994
264.0000,0.454091
263.8000,0.458344
263.6000,0.46259
263.4000,0.466873
263.2000,0.471179
263.0000,0.475546
262.8000,0.479939
262.6000,0.484387
262.4000,0.488842
262.2000,0.493337
262.0000,0.497854
261.8000,0.502381
261.6000,0.506937
261.4000,0.511519
261.2000,0.516072
261.0000,0.52064
260.8000,0.525163
260.6000,0.529661
260.4000,0.534132
260.2000,0.538618
260.0000,0.543104
259.8000,0.547512
259.6000,0.551908
259.4000,0.556306
259.2000,0.560641
259.0000,0.56495
258.8000,0.569258
258.6000,0.573487
258.4000,0.577711
258.2000,0.581927
258.0000,0.586079
257.8000,0.590204
257.6000,0.594337
257.4000,0.598414
257.2000,0.602489
257.0000,0.606494
256.8000,0.610509
256.6000,0.614511
256.4000,0.618468
256.2000,0.622376
256.0000,0.626357
255.8000,0.630254
255.6000,0.634123
255.4000,0.638002
255.2000,0.641855
255.0000,0.645656
254.8000,0.649493
254.6000,0.6533
254.4000,0.657103
254.2000,0.660826
254.0000,0.664563
253.8000,0.66824
253.6000,0.671913
253.4000,0.675518
253.2000,0.679157
253.0000,0.682768
252.8000,0.68627
252.6000,0.689797
252.4000,0.693228
252.2000,0.696548
252.0000,0.699804
251.8000,0.703032
251.6000,0.706185
251.4000,0.709186
251.2000,0.712087
251.0000,0.714934
250.8000,0.717661
250.6000,0.720344
250.4000,0.722867
250.2000,0.725284
250.0000,0.72754
249.8000,0.729651
249.6000,0.731608
249.4000,0.733458
249.2000,0.735208
249.0000,0.736875
248.8000,0.738364
248.6000,0.739642
248.4000,0.740831
248.2000,0.74186
248.0000,0.742764
247.8000,0.743503
247.6000,0.744118
247.4000,0.744607
247.2000,0.744905
247.0000,0.745091
246.8000,0.745192
246.6000,0.745127
246.4000,0.7449
246.2000,0.744488
246.0000,0.743919
245.8000,0.743229
245.6000,0.742363
245.4000,0.741345
245.2000,0.739964
245.0000,0.738535
244.8000,0.736686
244.6000,0.734704
244.4000,0.732498
244.2000,0.729849
244.0000,0.726885
243.8000,0.723574
243.6000,0.719848
243.4000,0.715641
243.2000,0.711122
243.0000,0.705947
242.8000,0.700205
242.6000,0.693966
242.4000,0.68709
242.2000,0.679802
242.0000,0.672319
241.8000,0.664164
241.6000,0.655572
241.4000,0.646976
241.2000,0.638153
241.0000,0.629342
240.8000,0.620515
240.6000,0.611956
240.4000,0.603237
240.2000,0.595037
240.0000,0.587101
239.8000,0.580071
239.6000,0.573532
239.4000,0.567985
239.2000,0.56298
239.0000,0.558454
238.8000,0.554408
238.6000,0.551272
238.4000,0.54845
238.2000,0.546169
238.0000,0.544203
237.8000,0.54239
237.6000,0.541716
237.4000,0.540789
237.2000,0.540118
237.0000,0.539742
236.8000,0.539541
236.6000,0.539066
236.4000,0.538859
236.2000,0.538557
236.0000,0.538884
235.8000,0.538775
235.6000,0.538677
235.4000,0.538609
235.2000,0.53912
235.0000,0.53892
234.8000,0.538786
234.6000,0.538731
234.4000,0.537822
234.2000,0.538194
234.0000,0.538399
233.8000,0.538386
233.6000,0.5383
233.4000,0.538463
233.2000,0.538576
233.0000,0.53844
232.8000,0.538055
232.6000,0.538743
232.4000,0.538861
232.2000,0.539079
232.0000,0.538758
231.8000,0.538643
231.6000,0.538392
231.4000,0.53839
231.2000,0.538852
231.0000,0.538517
230.8000,0.53819
230.6000,0.538243
230.4000,0.538508
230.2000,0.538586
230.0000,0.538111
229.8000,0.538444
229.6000,0.538404
229.4000,0.538248
229.2000,0.538104
229.0000,0.537821
228.8000,0.538307
228.6000,0.538444
228.4000,0.539013
228.2000,0.539051
228.0000,0.538433
227.8000,0.53872
227.6000,0.539055
227.4000,0.539051
227.2000,0.538787
227.0000,0.538085
226.8000,0.538507
226.6000,0.538297
226.4000,0.538499
226.2000,0.538207
226.0000,0.538059
225.8000,0.538029
225.6000,0.537869
225.4000,0.537761
225.2000,0.537586
225.0000,0.537423
224.8000,0.537831
224.6000,0.537411
224.4000,0.537667
224.2000,0.537803
224.0000,0.53729
223.8000,0.537308
223.6000,0.537167
223.4000,0.536737
223.2000,0.536155
223.0000,0.536115
222.8000,0.53648
222.6000,0.536631
222.4000,0.536611
222.2000,0.536618
222.0000,0.536235
221.8000,0.536521
221.6000,0.536181
221.4000,0.535773
221.2000,0.535247
221.0000,0.534887
220.8000,0.535575
220.6000,0.535745
220.4000,0.536197
220.2000,0.535995
220.0000,0.536282
219.8000,0.535811
219.6000,0.53498
219.4000,0.534749
219.2000,0.53464
219.0000,0.534428
218.8000,0.534151
218.6000,0.534104
218.4000,0.534106
218.2000,0.534563
218.0000,0.53468
217.8000,0.534591
217.6000,0.534263
217.4000,0.534402
217.2000,0.5338
217.0000,0.533936
216.8000,0.534088
216.6000,0.534028
216.4000,0.534383
216.2000,0.534116
216.0000,0.533339
215.8000,0.533028
215.6000,0.532826
215.4000,0.532501
215.2000,0.532606
215.0000,0.531957
214.8000,0.53139
214.6000,0.530618
214.4000,0.530266
214.2000,0.530011
214.0000,0.5298
213.8000,0.529785
213.6000,0.529478
213.4000,0.529067
213.2000,0.528739
213.0000,0.528127
212.8000,0.528776
212.6000,0.528273
212.4000,0.528382
212.2000,0.528344
212.0000,0.527167
211.8000,0.526974
211.6000,0.526651
211.4000,0.52684
211.2000,0.525888
211.0000,0.525581
210.8000,0.525154
210.6000,0.524095
210.4000,0.523333
210.2000,0.523299
210.0000,0.522906
209.8000,0.522772
209.6000,0.521652
209.4000,0.521115
209.2000,0.520464
209.0000,0.519092
208.8000,0.519018
208.6000,0.518338
208.4000,0.517317
208.2000,0.516656
208.0000,0.516217
207.8000,0.515301
207.6000,0.51475
207.4000,0.514511
207.2000,0.513812
207.0000,0.512797
206.8000,0.512329
206.6000,0.511637
206.4000,0.510868
206.2000,0.510239
206.0000,0.508839
205.8000,0.507958
205.6000,0.507493
205.4000,0.507024
205.2000,0.50651
205.0000,0.505208
204.8000,0.504163
204.6000,0.503288
204.4000,0.501699
204.2000,0.500444
204.0000,0.499168
203.8000,0.498162
203.6000,0.496803
203.4000,0.496147
203.2000,0.494916
203.0000,0.494088
202.8000,0.494233
202.6000,0.494606
202.4000,0.493544
202.2000,0.493023
202.0000,0.492632
201.8000,0.492372
201.6000,0.492827
201.4000,0.49262
201.2000,0.493045
201.0000,0.492933
200.8000,0.493775
200.6000,0.493808
200.4000,0.494027
200.2000,0.493589
200.0000,0.493724

##### Extended Information
[Rg]
,c
Rg


,{ww

[f[^]
,2024/07/09 16:41

f[^^Cv,uf[^
,Wavelength [nm]
c,Abs
X^[g,800 nm
Gh,200 nm
f[^u,0.2 nm
f[^,3001    

[]
u,V-730
@,V-730
VA,C235561798

,2024/07/09 16:40

[h,Abs
,800 - 200 nm
f[^u,0.2 nm
oh,1.0 nm
X|X,0.96 sec
[h,A
x,200 nm/min
,340 nm
,D2/WI
tB^[,Xebv
,x[XC
J,1

