TITLE,c
DATA TYPE,ULTRAVIOLET SPECTRUM
ORIGIN,JASCO
OWNER,
DATE,24/07/09
TIME,16:51:36
SPECTROMETER/DATA SYSTEM,
LOCALE,1041
RESOLUTION,
DELTAX,-0.2
XUNITS,NANOMETERS
YUNITS,ABSORBANCE
FIRSTX,  800.0000
LASTX,  200.0000
NPOINTS,    3001
FIRSTY,     0.00120
MAXY,     0.75174
MINY,     0.00067
XYDATA
800.0000,0.00119621
799.8000,0.00119764
799.6000,0.00120194
799.4000,0.00120182
799.2000,0.00120009
799.0000,0.00119472
798.8000,0.00118893
798.6000,0.00118445
798.4000,0.00117639
798.2000,0.00117233
798.0000,0.00116493
797.8000,0.00116177
797.6000,0.00115556
797.4000,0.00114839
797.2000,0.00114332
797.0000,0.00114469
796.8000,0.00114237
796.6000,0.00114045
796.4000,0.00113896
796.2000,0.0011438
796.0000,0.00114457
795.8000,0.00115132
795.6000,0.00115992
795.4000,0.0011635
795.2000,0.00117084
795.0000,0.00117311
794.8000,0.00118152
794.6000,0.00118218
794.4000,0.00118911
794.2000,0.00120421
794.0000,0.00121495
793.8000,0.00122152
793.6000,0.00122641
793.4000,0.00123226
793.2000,0.00123967
793.0000,0.00124384
792.8000,0.0012565
792.6000,0.00126301
792.4000,0.00126892
792.2000,0.00127972
792.0000,0.00128963
791.8000,0.00130163
791.6000,0.00131046
791.4000,0.00131727
791.2000,0.00131804
791.0000,0.00131578
790.8000,0.0013196
790.6000,0.00132276
790.4000,0.00132718
790.2000,0.00132933
790.0000,0.00132957
789.8000,0.00132372
789.6000,0.00131888
789.4000,0.00131428
789.2000,0.00130927
789.0000,0.00130533
788.8000,0.00130014
788.6000,0.00129381
788.4000,0.00128521
788.2000,0.00128617
788.0000,0.00128939
787.8000,0.0012833
787.6000,0.00127703
787.4000,0.0012756
787.2000,0.00127501
787.0000,0.00127381
786.8000,0.00127154
786.6000,0.00127596
786.4000,0.00127351
786.2000,0.0012725
786.0000,0.00127554
785.8000,0.00127369
785.6000,0.00127483
785.4000,0.00127315
785.2000,0.0012753
785.0000,0.00127453
784.8000,0.00126975
784.6000,0.00127351
784.4000,0.00127554
784.2000,0.0012731
784.0000,0.00127041
783.8000,0.00127023
783.6000,0.00127011
783.4000,0.00126742
783.2000,0.00126826
783.0000,0.00126689
782.8000,0.00125996
782.6000,0.00125937
782.4000,0.00125769
782.2000,0.00126151
782.0000,0.00125799
781.8000,0.00125554
781.6000,0.00125244
781.4000,0.00124928
781.2000,0.00124343
781.0000,0.0012411
780.8000,0.00124259
780.6000,0.00124367
780.4000,0.00124504
780.2000,0.00124605
780.0000,0.00124462
779.8000,0.00124844
779.6000,0.00125125
779.4000,0.00125041
779.2000,0.00124599
779.0000,0.00123847
778.8000,0.00123662
778.6000,0.00123244
778.4000,0.00123077
778.2000,0.00122892
778.0000,0.00122832
777.8000,0.00122373
777.6000,0.00121746
777.4000,0.00121054
777.2000,0.00120492
777.0000,0.001198
776.8000,0.00119854
776.6000,0.00119484
776.4000,0.00119048
776.2000,0.00118743
776.0000,0.00118385
775.8000,0.00118057
775.6000,0.00117347
775.4000,0.00117359
775.2000,0.00117364
775.0000,0.0011712
774.8000,0.00116469
774.6000,0.00116439
774.4000,0.00116278
774.2000,0.00115735
774.0000,0.00115192
773.8000,0.00115066
773.6000,0.00114547
773.4000,0.00114439
773.2000,0.00114786
773.0000,0.0011481
772.8000,0.00115257
772.6000,0.00115657
772.4000,0.00116571
772.2000,0.0011706
772.0000,0.00117269
771.8000,0.00117782
771.6000,0.00118254
771.4000,0.00118314
771.2000,0.00118517
771.0000,0.0011946
770.8000,0.0012023
770.6000,0.00120677
770.4000,0.00120976
770.2000,0.00121066
770.0000,0.00121233
769.8000,0.00121406
769.6000,0.00121668
769.4000,0.00121901
769.2000,0.00122068
769.0000,0.00122122
768.8000,0.00122522
768.6000,0.00122928
768.4000,0.00123334
768.2000,0.00123489
768.0000,0.00123788
767.8000,0.00123585
767.6000,0.00123465
767.4000,0.0012371
767.2000,0.00123973
767.0000,0.00124193
766.8000,0.00124176
766.6000,0.00124313
766.4000,0.00123877
766.2000,0.00123788
766.0000,0.00123262
765.8000,0.00122683
765.6000,0.00121913
765.4000,0.00121221
765.2000,0.0012091
765.0000,0.00121006
764.8000,0.00120379
764.6000,0.00120295
764.4000,0.00120343
764.2000,0.00120224
764.0000,0.00120033
763.8000,0.0011989
763.6000,0.00119836
763.4000,0.00120009
763.2000,0.00120457
763.0000,0.00120248
762.8000,0.00120463
762.6000,0.0012051
762.4000,0.00120767
762.2000,0.00120516
762.0000,0.00120821
761.8000,0.00120737
761.6000,0.00121167
761.4000,0.00120558
761.2000,0.00119884
761.0000,0.00119251
760.8000,0.00119233
760.6000,0.00118946
760.4000,0.00118337
760.2000,0.00117645
760.0000,0.00116976
759.8000,0.00117024
759.6000,0.00116845
759.4000,0.00116965
759.2000,0.00117078
759.0000,0.00117197
758.8000,0.00116953
758.6000,0.00116851
758.4000,0.00116427
758.2000,0.00116266
758.0000,0.00116738
757.8000,0.00117048
757.6000,0.0011669
757.4000,0.00116397
757.2000,0.00116254
757.0000,0.00116284
756.8000,0.00116206
756.6000,0.00115848
756.4000,0.00115663
756.2000,0.00115269
756.0000,0.00114827
755.8000,0.00114619
755.6000,0.00114016
755.4000,0.00113854
755.2000,0.00113771
755.0000,0.00114034
754.8000,0.00113061
754.6000,0.0011235
754.4000,0.00111974
754.2000,0.0011192
754.0000,0.00111801
753.8000,0.0011127
753.6000,0.00110798
753.4000,0.0011053
753.2000,0.00110094
753.0000,0.00109598
752.8000,0.00109121
752.6000,0.00108524
752.4000,0.00108279
752.2000,0.00107807
752.0000,0.00107557
751.8000,0.00107282
751.6000,0.00107419
751.4000,0.00107581
751.2000,0.00107587
751.0000,0.00107718
750.8000,0.00107604
750.6000,0.00107479
750.4000,0.00107515
750.2000,0.00107222
750.0000,0.00107234
749.8000,0.00107473
749.6000,0.0010767
749.4000,0.0010804
749.2000,0.00108291
749.0000,0.00108303
748.8000,0.00108178
748.6000,0.00107969
748.4000,0.00108046
748.2000,0.00107724
748.0000,0.00107181
747.8000,0.00107127
747.6000,0.00106649
747.4000,0.00106679
747.2000,0.0010659
747.0000,0.00106709
746.8000,0.00106787
746.6000,0.00106375
746.4000,0.00106387
746.2000,0.00106112
746.0000,0.00105927
745.8000,0.00105832
745.6000,0.00105724
745.4000,0.00105849
745.2000,0.00105593
745.0000,0.00105754
744.8000,0.00105861
744.6000,0.00105282
744.4000,0.00105342
744.2000,0.00105133
744.0000,0.00105288
743.8000,0.00105336
743.6000,0.00105235
743.4000,0.00105038
743.2000,0.0010493
743.0000,0.00104847
742.8000,0.00104703
742.6000,0.00104739
742.4000,0.00104853
742.2000,0.00104644
742.0000,0.00104882
741.8000,0.00104679
741.6000,0.00105079
741.4000,0.00105324
741.2000,0.00105647
741.0000,0.00105987
740.8000,0.00105766
740.6000,0.00105676
740.4000,0.00105838
740.2000,0.00106309
740.0000,0.000905618
739.8000,0.000920721
739.6000,0.000932839
739.4000,0.000945494
739.2000,0.000960059
739.0000,0.000973192
738.8000,0.000987996
738.6000,0.0010031
738.4000,0.0010108
738.2000,0.00102453
738.0000,0.00103635
737.8000,0.00104053
737.6000,0.00104536
737.4000,0.001041
737.2000,0.00103724
737.0000,0.00103462
736.8000,0.00102716
736.6000,0.00102041
736.4000,0.00101808
736.2000,0.00101474
736.0000,0.00100972
735.8000,0.00100483
735.6000,0.00100065
735.4000,0.000993846
735.2000,0.000992294
735.0000,0.000985788
734.8000,0.000979878
734.6000,0.000971282
734.4000,0.000958149
734.2000,0.000945315
734.0000,0.000934451
733.8000,0.000920064
733.6000,0.00090735
733.4000,0.000894575
733.2000,0.000882218
733.0000,0.000868489
732.8000,0.000850521
732.6000,0.000834344
732.4000,0.000820733
732.2000,0.000809929
732.0000,0.000793752
731.8000,0.00078623
731.6000,0.000779843
731.4000,0.00077465
731.2000,0.000783007
731.0000,0.000792856
730.8000,0.000807123
730.6000,0.000824196
730.4000,0.000846462
730.2000,0.000871772
730.0000,0.000901201
729.8000,0.000927168
729.6000,0.000965014
729.4000,0.000996831
729.2000,0.00102483
729.0000,0.00105444
728.8000,0.00108739
728.6000,0.00111097
728.4000,0.00113944
728.2000,0.00115705
728.0000,0.00116821
727.8000,0.00117788
727.6000,0.00118564
727.4000,0.00118922
727.2000,0.00119179
727.0000,0.00119884
726.8000,0.00120218
726.6000,0.00120379
726.4000,0.00120391
726.2000,0.00120027
726.0000,0.00119257
725.8000,0.00118385
725.6000,0.00117239
725.4000,0.00116636
725.2000,0.00115412
725.0000,0.00115102
724.8000,0.0011472
724.6000,0.00114254
724.4000,0.00114189
724.2000,0.00114075
724.0000,0.00113974
723.8000,0.00113526
723.6000,0.00112732
723.4000,0.00112159
723.2000,0.00111132
723.0000,0.00110583
722.8000,0.00110452
722.6000,0.00110147
722.4000,0.00109885
722.2000,0.00109395
722.0000,0.00109354
721.8000,0.00108774
721.6000,0.00108464
721.4000,0.00107819
721.2000,0.00107019
721.0000,0.0010647
720.8000,0.00105688
720.6000,0.00105109
720.4000,0.00104482
720.2000,0.00104011
720.0000,0.00104112
719.8000,0.00103665
719.6000,0.0010345
719.4000,0.00102895
719.2000,0.00102626
719.0000,0.00102471
718.8000,0.00102059
718.6000,0.00102244
718.4000,0.00102059
718.2000,0.00102268
718.0000,0.00102125
717.8000,0.00101904
717.6000,0.00102005
717.4000,0.00101778
717.2000,0.00102148
717.0000,0.00102399
716.8000,0.00101719
716.6000,0.00101557
716.4000,0.00101575
716.2000,0.00101808
716.0000,0.00101892
715.8000,0.00102172
715.6000,0.00102101
715.4000,0.00102184
715.2000,0.00101981
715.0000,0.0010145
714.8000,0.00101563
714.6000,0.00101683
714.4000,0.00101378
714.2000,0.00100919
714.0000,0.00100871
713.8000,0.00100489
713.6000,0.00100793
713.4000,0.00100925
713.2000,0.00100489
713.0000,0.00100614
712.8000,0.00100411
712.6000,0.00100149
712.4000,0.00100232
712.2000,0.000999517
712.0000,0.0010034
711.8000,0.00100686
711.6000,0.00100662
711.4000,0.00100549
711.2000,0.00100764
711.0000,0.00101313
710.8000,0.00101265
710.6000,0.00101265
710.4000,0.00101235
710.2000,0.0010145
710.0000,0.00101259
709.8000,0.00101146
709.6000,0.00100925
709.4000,0.0010077
709.2000,0.00100531
709.0000,0.0010025
708.8000,0.000999219
708.6000,0.00100029
708.4000,0.000997249
708.2000,0.00100035
708.0000,0.00100399
707.8000,0.00100167
707.6000,0.00100226
707.4000,0.00100579
707.2000,0.00100495
707.0000,0.00100149
706.8000,0.00100304
706.6000,0.00100149
706.4000,0.00100089
706.2000,0.000999338
706.0000,0.000996533
705.8000,0.00099695
705.6000,0.000993548
705.4000,0.000987459
705.2000,0.00098525
705.0000,0.000980475
704.8000,0.000976296
704.6000,0.000972655
704.4000,0.000966089
704.2000,0.000961731
704.0000,0.000955881
703.8000,0.000951881
703.6000,0.000947106
703.4000,0.000943226
703.2000,0.000942629
703.0000,0.000941077
702.8000,0.000942629
702.6000,0.000939405
702.4000,0.000939167
702.2000,0.000939167
702.0000,0.000939644
701.8000,0.000937256
701.6000,0.000938629
701.4000,0.00094036
701.2000,0.000942569
701.0000,0.000938629
700.8000,0.000941495
700.6000,0.000943524
700.4000,0.000947703
700.2000,0.000948121
700.0000,0.000948359
699.8000,0.000947285
699.6000,0.000945494
699.4000,0.000945375
699.2000,0.000943763
699.0000,0.000940539
698.8000,0.00093845
698.6000,0.000935346
698.4000,0.00092687
698.2000,0.000925138
698.0000,0.000924243
697.8000,0.00092872
697.6000,0.000932421
697.4000,0.000929377
697.2000,0.000930272
697.0000,0.00093272
696.8000,0.000933615
696.6000,0.00093648
696.4000,0.00093254
696.2000,0.000930212
696.0000,0.000927407
695.8000,0.000927586
695.6000,0.000926332
695.4000,0.000927884
695.2000,0.000925556
695.0000,0.000920124
694.8000,0.000915289
694.6000,0.000907887
694.4000,0.000900664
694.2000,0.000894575
694.0000,0.000886994
693.8000,0.000882397
693.6000,0.000878517
693.4000,0.000872429
693.2000,0.000872429
693.0000,0.000870757
692.8000,0.000872309
692.6000,0.000875174
692.4000,0.000873026
692.2000,0.00087219
692.0000,0.000872608
691.8000,0.000871354
691.6000,0.000869384
691.4000,0.000869384
691.2000,0.000867892
691.0000,0.000872966
690.8000,0.000874339
690.6000,0.000875234
690.4000,0.000873264
690.2000,0.000871772
690.0000,0.000870697
689.8000,0.000869862
689.6000,0.000868548
689.4000,0.000864609
689.2000,0.000865146
689.0000,0.000864489
688.8000,0.000863654
688.6000,0.000863474
688.4000,0.000864609
688.2000,0.000859356
688.0000,0.000861146
687.8000,0.000863594
687.6000,0.000864131
687.4000,0.000863713
687.2000,0.000869444
687.0000,0.000872548
686.8000,0.000874339
686.6000,0.00087595
686.4000,0.000875533
686.2000,0.000876607
686.0000,0.00087601
685.8000,0.0008741
685.6000,0.000875055
685.4000,0.000875055
685.2000,0.000876607
685.0000,0.000879055
684.8000,0.000877383
684.6000,0.000871951
684.4000,0.000872429
684.2000,0.000873981
684.0000,0.000873145
683.8000,0.000870996
683.6000,0.000869026
683.4000,0.000867534
683.2000,0.000864967
683.0000,0.000862102
682.8000,0.000863057
682.6000,0.000863713
682.4000,0.000862878
682.2000,0.000865982
682.0000,0.000865146
681.8000,0.000866937
681.6000,0.000868668
681.4000,0.000867892
681.2000,0.00086634
681.0000,0.000861325
680.8000,0.000860967
680.6000,0.000864489
680.4000,0.000866459
680.2000,0.000867414
680.0000,0.000869563
679.8000,0.000874458
679.6000,0.000872727
679.4000,0.000873622
679.2000,0.000875413
679.0000,0.000874995
678.8000,0.000875891
678.6000,0.000878816
678.4000,0.000877682
678.2000,0.000881025
678.0000,0.000882397
677.8000,0.000882159
677.6000,0.000877383
677.4000,0.000873503
677.2000,0.000870877
677.0000,0.000869384
676.8000,0.000865206
676.6000,0.000861803
676.4000,0.000860072
676.2000,0.000857863
676.0000,0.000859893
675.8000,0.000858818
675.6000,0.000859535
675.4000,0.000853625
675.2000,0.000853446
675.0000,0.000851715
674.8000,0.00085064
674.6000,0.000851297
674.4000,0.000853804
674.2000,0.000853147
674.0000,0.000855595
673.8000,0.00085846
673.6000,0.000860251
673.4000,0.000862281
673.2000,0.000862758
673.0000,0.000863892
672.8000,0.000863236
672.6000,0.000859356
672.4000,0.000855893
672.2000,0.000856132
672.0000,0.000853147
671.8000,0.000853147
671.6000,0.000852312
671.4000,0.000849745
671.2000,0.000847536
671.0000,0.000842999
670.8000,0.000836672
670.6000,0.000830822
670.4000,0.000831896
670.2000,0.000832195
670.0000,0.000834224
669.8000,0.000832971
669.6000,0.000829926
669.4000,0.000836552
669.2000,0.000835239
669.0000,0.000836135
668.8000,0.000839
668.6000,0.000837866
668.4000,0.000837687
668.2000,0.000842641
668.0000,0.000841328
667.8000,0.000842701
667.6000,0.000841149
667.4000,0.000839895
667.2000,0.000839239
667.0000,0.000834702
666.8000,0.000828136
666.6000,0.000825748
666.4000,0.000822883
666.2000,0.00081745
666.0000,0.000816197
665.8000,0.00081751
665.6000,0.000818883
665.4000,0.000817331
665.2000,0.000814764
665.0000,0.000810168
664.8000,0.000809332
664.6000,0.00080581
664.4000,0.000805631
664.2000,0.000803721
664.0000,0.000800199
663.8000,0.000796737
663.6000,0.00079805
663.4000,0.000798766
663.2000,0.000798587
663.0000,0.000795722
662.8000,0.0007922
662.6000,0.000788141
662.4000,0.00078241
662.2000,0.000777993
662.0000,0.00077256
661.8000,0.000767128
661.6000,0.000764741
661.4000,0.000762174
661.2000,0.000762591
661.0000,0.000763726
660.8000,0.000756324
660.6000,0.000754593
660.4000,0.000748683
660.2000,0.000743012
660.0000,0.000740147
659.8000,0.000740027
659.6000,0.000743489
659.4000,0.000742057
659.2000,0.000740087
659.0000,0.000737699
658.8000,0.000736147
658.6000,0.000733759
658.4000,0.000729999
658.2000,0.000731372
658.0000,0.000729163
657.8000,0.000727611
657.6000,0.000729581
657.4000,0.000727312
657.2000,0.000727551
657.0000,0.000726954
656.8000,0.000724149
656.6000,0.000722179
656.4000,0.000720209
656.2000,0.000721164
656.0000,0.00072385
655.8000,0.000723432
655.6000,0.000726536
655.4000,0.000727014
655.2000,0.00072576
655.0000,0.00072582
654.8000,0.00072785
654.6000,0.000725462
654.4000,0.000728805
654.2000,0.000734535
654.0000,0.000733879
653.8000,0.000734177
653.6000,0.000737938
653.4000,0.000732864
653.2000,0.000730536
653.0000,0.000726596
652.8000,0.000720627
652.6000,0.000720686
652.4000,0.000719851
652.2000,0.000718537
652.0000,0.000720806
651.8000,0.000715553
651.6000,0.000711195
651.4000,0.000711672
651.2000,0.000711911
651.0000,0.00070624
650.8000,0.000707315
650.6000,0.000707195
650.4000,0.000703912
650.2000,0.000703793
650.0000,0.000702659
649.8000,0.000700748
649.6000,0.000699316
649.4000,0.000698241
649.2000,0.000697764
649.0000,0.000701286
648.8000,0.000703077
648.6000,0.000705703
648.4000,0.000705942
648.2000,0.000704151
648.0000,0.000698659
647.8000,0.000695555
647.6000,0.00069072
647.4000,0.000687138
647.2000,0.000688272
647.0000,0.000689407
646.8000,0.000683079
646.6000,0.000682184
646.4000,0.000682422
646.2000,0.000682303
646.0000,0.00068296
645.8000,0.000678602
645.6000,0.000672215
645.4000,0.000671379
645.2000,0.000671021
645.0000,0.000670842
644.8000,0.000671737
644.6000,0.000671558
644.4000,0.000674722
644.2000,0.000675617
644.0000,0.000675916
643.8000,0.00067502
643.6000,0.00067902
643.4000,0.00068284
643.2000,0.00068284
643.0000,0.00068493
642.8000,0.000682542
642.6000,0.000679438
642.4000,0.000676632
642.2000,0.000674901
642.0000,0.000669887
641.8000,0.000666365
641.6000,0.000667976
641.4000,0.000672215
641.2000,0.000672274
641.0000,0.000672931
640.8000,0.00067126
640.6000,0.00067305
640.4000,0.000674602
640.2000,0.000673588
640.0000,0.000674722
639.8000,0.000673826
639.6000,0.00067317
639.4000,0.00067711
639.2000,0.000682482
639.0000,0.000687735
638.8000,0.000693884
638.6000,0.000698361
638.4000,0.000700331
638.2000,0.000699674
638.0000,0.000704091
637.8000,0.000705882
637.6000,0.00070636
637.4000,0.000706837
637.2000,0.000708568
637.0000,0.000711493
636.8000,0.000715135
636.6000,0.000713225
636.4000,0.000714597
636.2000,0.000713702
636.0000,0.000715493
635.8000,0.000712687
635.6000,0.000710479
635.4000,0.000710956
635.2000,0.000707673
635.0000,0.000711971
634.8000,0.000709643
634.6000,0.000711195
634.4000,0.000712329
634.2000,0.000710001
634.0000,0.000710419
633.8000,0.000705643
633.6000,0.000702121
633.4000,0.000704629
633.2000,0.000704629
633.0000,0.000706658
632.8000,0.000705584
632.6000,0.000706778
632.4000,0.00071215
632.2000,0.000712568
632.0000,0.000714657
631.8000,0.000713821
631.6000,0.000716269
631.4000,0.000715194
631.2000,0.000717045
631.0000,0.000721104
630.8000,0.000719552
630.6000,0.000722358
630.4000,0.000723969
630.2000,0.000724626
630.0000,0.000725701
629.8000,0.000727074
629.6000,0.000729043
629.4000,0.000734356
629.2000,0.000732625
629.0000,0.000734595
628.8000,0.00073949
628.6000,0.000743072
628.4000,0.000746653
628.2000,0.000748026
628.0000,0.000751429
627.8000,0.000753458
627.6000,0.000755727
627.4000,0.000757518
627.2000,0.000761756
627.0000,0.000764323
626.8000,0.000767009
626.6000,0.000770829
626.4000,0.000771068
626.2000,0.000767845
626.0000,0.000767188
625.8000,0.000764382
625.6000,0.000758652
625.4000,0.000752682
625.2000,0.000747608
625.0000,0.000745698
624.8000,0.000742654
624.6000,0.000742236
624.4000,0.000738296
624.2000,0.000735252
624.0000,0.000733043
623.8000,0.00072785
623.6000,0.000724268
623.4000,0.000720149
623.2000,0.000716567
623.0000,0.000714836
622.8000,0.000716269
622.6000,0.000716985
622.4000,0.000715433
622.2000,0.000716806
622.0000,0.00071991
621.8000,0.000722776
621.6000,0.000720746
621.4000,0.000719015
621.2000,0.00072188
621.0000,0.000728327
620.8000,0.000727432
620.6000,0.000730775
620.4000,0.000735192
620.2000,0.00073943
620.0000,0.000744624
619.8000,0.000750235
619.6000,0.000757398
619.4000,0.000763845
619.2000,0.000771665
619.0000,0.000773933
618.8000,0.000775545
618.6000,0.000776261
618.4000,0.000784798
618.2000,0.000789275
618.0000,0.000796617
617.8000,0.000797333
617.6000,0.000804258
617.4000,0.000811899
617.2000,0.000813928
617.0000,0.000816674
616.8000,0.00082139
616.6000,0.000822584
616.4000,0.000819957
616.2000,0.00081954
616.0000,0.000819122
615.8000,0.000819898
615.6000,0.000824375
615.4000,0.000826584
615.2000,0.000826225
615.0000,0.000828673
614.8000,0.000823897
614.6000,0.000825031
614.4000,0.000825748
614.2000,0.000821808
614.0000,0.000825628
613.8000,0.000822584
613.6000,0.000822345
613.4000,0.000823718
613.2000,0.000823718
613.0000,0.000824793
612.8000,0.000823479
612.6000,0.000820375
612.4000,0.000817092
612.2000,0.000820972
612.0000,0.000821211
611.8000,0.000819002
611.6000,0.000823062
611.4000,0.000819301
611.2000,0.000816018
611.0000,0.000818525
610.8000,0.000813928
610.6000,0.000813511
610.4000,0.000811541
610.2000,0.000812436
610.0000,0.000815003
609.8000,0.000813928
609.6000,0.000817928
609.4000,0.000822465
609.2000,0.000824494
609.0000,0.000824733
608.8000,0.000826822
608.6000,0.000827539
608.4000,0.000828255
608.2000,0.000827419
608.0000,0.000830285
607.8000,0.000829031
607.6000,0.000828852
607.4000,0.000832195
607.2000,0.000834463
607.0000,0.000830941
606.8000,0.000829389
606.6000,0.000833269
606.4000,0.000834881
606.2000,0.000840671
606.0000,0.000845626
605.8000,0.000845029
605.6000,0.000843059
605.4000,0.000845745
605.2000,0.000847835
605.0000,0.000854341
604.8000,0.000855058
604.6000,0.000859057
604.4000,0.000865743
604.2000,0.000869802
604.0000,0.000872488
603.8000,0.000880845
603.6000,0.000886397
603.4000,0.000889382
603.2000,0.000894336
603.0000,0.000891949
602.8000,0.000887233
602.6000,0.000892187
602.4000,0.00089362
602.2000,0.00089565
602.0000,0.00089553
601.8000,0.000896426
601.6000,0.000899828
601.4000,0.000902753
601.2000,0.000903649
601.0000,0.000905977
600.8000,0.000904484
600.6000,0.00090341
600.4000,0.000902097
600.2000,0.000903708
600.0000,0.000902813
599.8000,0.000906215
599.6000,0.000910991
599.4000,0.000908364
599.2000,0.000913976
599.0000,0.000919169
598.8000,0.000923407
598.6000,0.00092866
598.4000,0.000932481
598.2000,0.000937913
598.0000,0.000945315
597.8000,0.000947822
597.6000,0.000951463
597.4000,0.000954627
597.2000,0.000956657
597.0000,0.000959403
596.8000,0.000961492
596.6000,0.000965313
596.4000,0.000971401
596.2000,0.000978923
596.0000,0.000982803
595.8000,0.000982385
595.6000,0.000988235
595.4000,0.000988533
595.2000,0.00098919
595.0000,0.000989727
594.8000,0.000988235
594.6000,0.00098734
594.4000,0.000989429
594.2000,0.000994383
594.0000,0.00100071
593.8000,0.0010077
593.6000,0.00101402
593.4000,0.00101719
593.2000,0.00101766
593.0000,0.00102154
592.8000,0.00102584
592.6000,0.00103008
592.4000,0.00103151
592.2000,0.00103736
592.0000,0.00104142
591.8000,0.00104106
591.6000,0.00104399
591.4000,0.00105079
591.2000,0.00105461
591.0000,0.00105623
590.8000,0.00105694
590.6000,0.00105748
590.4000,0.00105927
590.2000,0.0010616
590.0000,0.00106649
589.8000,0.001065
589.6000,0.00106524
589.4000,0.00106846
589.2000,0.00107234
589.0000,0.00107921
588.8000,0.00108715
588.6000,0.00109461
588.4000,0.00109939
588.2000,0.00110494
588.0000,0.00111485
587.8000,0.00111914
587.6000,0.00112499
587.4000,0.00112846
587.2000,0.00113162
587.0000,0.00113932
586.8000,0.00114117
586.6000,0.00114881
586.4000,0.0011592
586.2000,0.00116839
586.0000,0.00117514
585.8000,0.00117955
585.6000,0.00118176
585.4000,0.00118499
585.2000,0.00118821
585.0000,0.00118917
584.8000,0.00119119
584.6000,0.00119442
584.4000,0.00119985
584.2000,0.00120904
584.0000,0.001214
583.8000,0.00121633
583.6000,0.00122444
583.4000,0.00122701
583.2000,0.00122635
583.0000,0.00122641
582.8000,0.00122737
582.6000,0.00122815
582.4000,0.00123364
582.2000,0.00124026
582.0000,0.00125155
581.8000,0.00126331
581.6000,0.00127107
581.4000,0.00128217
581.2000,0.001291
581.0000,0.00129202
580.8000,0.00130163
580.6000,0.00130909
580.4000,0.00131685
580.2000,0.0013264
580.0000,0.00133703
579.8000,0.00134873
579.6000,0.00135601
579.4000,0.00136598
579.2000,0.00137022
579.0000,0.00138132
578.8000,0.0013883
578.6000,0.00139153
578.4000,0.0014003
578.2000,0.00140956
578.0000,0.00141254
577.8000,0.00141982
577.6000,0.00142752
577.4000,0.00143409
577.2000,0.00144
577.0000,0.00144722
576.8000,0.00144973
576.6000,0.00145725
576.4000,0.00146835
576.2000,0.00147886
576.0000,0.0014877
575.8000,0.00149325
575.6000,0.00149856
575.4000,0.00150835
575.2000,0.00151611
575.0000,0.00152005
574.8000,0.00152894
574.6000,0.00153491
574.4000,0.00154196
574.2000,0.00155025
574.0000,0.00156267
573.8000,0.00157228
573.6000,0.0015798
573.4000,0.0015878
573.2000,0.00159443
573.0000,0.00160237
572.8000,0.00161132
572.6000,0.00162535
572.4000,0.0016383
572.2000,0.00164893
572.0000,0.00166069
571.8000,0.00167961
571.6000,0.0016968
571.4000,0.00171149
571.2000,0.00172313
571.0000,0.0017396
570.8000,0.00175059
570.6000,0.00176444
570.4000,0.00178306
570.2000,0.00179357
570.0000,0.00180968
569.8000,0.00182288
569.6000,0.00183714
569.4000,0.0018452
569.2000,0.00185726
569.0000,0.00186998
568.8000,0.0018843
568.6000,0.00188985
568.4000,0.0018997
568.2000,0.00191266
568.0000,0.00192782
567.8000,0.00194059
567.6000,0.00195289
567.4000,0.00196453
567.2000,0.00197814
567.0000,0.00199139
566.8000,0.00200882
566.6000,0.0020216
566.4000,0.00203551
566.2000,0.0020456
566.0000,0.00205753
565.8000,0.00207371
565.6000,0.00208565
565.4000,0.00210231
565.2000,0.00211221
565.0000,0.00212618
564.8000,0.00213806
564.6000,0.00215131
564.4000,0.0021648
564.2000,0.00218361
564.0000,0.00219579
563.8000,0.00221328
563.6000,0.00222336
563.4000,0.00223948
563.2000,0.00225775
563.0000,0.00227954
562.8000,0.00230091
562.6000,0.00231798
562.4000,0.00232831
562.2000,0.00234269
562.0000,0.00236245
561.8000,0.0023809
561.6000,0.00239875
561.4000,0.00241618
561.2000,0.00243629
561.0000,0.00245319
560.8000,0.00247533
560.6000,0.00249008
560.4000,0.00251109
560.2000,0.00253228
560.0000,0.0025515
559.8000,0.00257407
559.6000,0.00259353
559.4000,0.00261567
559.2000,0.00264689
559.0000,0.00267256
558.8000,0.00269566
558.6000,0.00271841
558.4000,0.00274509
558.2000,0.00276819
558.0000,0.00279141
557.8000,0.00281362
557.6000,0.00283654
557.4000,0.00286531
557.2000,0.00289361
557.0000,0.00291486
556.8000,0.0029416
556.6000,0.00296363
556.4000,0.00298369
556.2000,0.00300321
556.0000,0.00302541
555.8000,0.00304959
555.6000,0.00307729
555.4000,0.00310242
555.2000,0.00312982
555.0000,0.0031611
554.8000,0.00319083
554.6000,0.00322234
554.4000,0.00324771
554.2000,0.00327267
554.0000,0.00329499
553.8000,0.0033255
553.6000,0.0033514
553.4000,0.00337785
553.2000,0.00341086
553.0000,0.00344291
552.8000,0.00347473
552.6000,0.00350595
552.4000,0.00353783
552.2000,0.00356696
552.0000,0.00359221
551.8000,0.00362379
551.6000,0.0036516
551.4000,0.00368229
551.2000,0.00371166
551.0000,0.00374962
550.8000,0.0037843
550.6000,0.00381785
550.4000,0.00385092
550.2000,0.00388584
550.0000,0.00392166
549.8000,0.00395658
549.6000,0.00399025
549.4000,0.00402541
549.2000,0.00405943
549.0000,0.0041005
548.8000,0.00413972
548.6000,0.00417393
548.4000,0.00420724
548.2000,0.00423876
548.0000,0.00428341
547.8000,0.00432203
547.6000,0.00436477
547.4000,0.00440351
547.2000,0.00444542
547.0000,0.00448613
546.8000,0.00452797
546.6000,0.00456671
546.4000,0.00460772
546.2000,0.00465112
546.0000,0.00469171
545.8000,0.00473153
545.6000,0.00477839
545.4000,0.00482191
545.2000,0.00487289
545.0000,0.00492142
544.8000,0.0049681
544.6000,0.00501287
544.4000,0.00505859
544.2000,0.00510515
544.0000,0.00515339
543.8000,0.00520234
543.6000,0.00524741
543.4000,0.00529719
543.2000,0.00535086
543.0000,0.00539772
542.8000,0.00544726
542.6000,0.00550021
542.4000,0.0055488
542.2000,0.00560079
542.0000,0.00564915
541.8000,0.00570036
541.6000,0.0057483
541.4000,0.00580053
541.2000,0.00585187
541.0000,0.00591031
540.8000,0.00596594
540.6000,0.00601919
540.4000,0.0060796
540.2000,0.00613989
540.0000,0.00619093
539.8000,0.00625271
539.6000,0.00631569
539.4000,0.00637455
539.2000,0.00643699
539.0000,0.00649907
538.8000,0.0065636
538.6000,0.0066264
538.4000,0.00669093
538.2000,0.00675122
538.0000,0.00681676
537.8000,0.00688063
537.6000,0.00694248
537.4000,0.0070125
537.2000,0.00707416
537.0000,0.00713529
536.8000,0.00720101
536.6000,0.00726495
536.4000,0.00733019
536.2000,0.00740147
536.0000,0.00746832
535.8000,0.00753614
535.6000,0.00760437
535.4000,0.00767558
535.2000,0.00774948
535.0000,0.0078235
534.8000,0.00789884
534.6000,0.0079719
534.4000,0.00805112
534.2000,0.00812812
534.0000,0.00820662
533.8000,0.00828935
533.6000,0.00837734
533.4000,0.00845984
533.2000,0.00854449
533.0000,0.00862573
532.8000,0.00871288
532.6000,0.00880445
532.4000,0.00889662
532.2000,0.00898425
532.0000,0.00906956
531.8000,0.00916083
531.6000,0.00925347
531.4000,0.00934278
531.2000,0.00943429
531.0000,0.00952735
530.8000,0.00962149
530.6000,0.00971628
530.4000,0.00981
530.2000,0.00990712
530.0000,0.0100045
529.8000,0.0101024
529.6000,0.0101956
529.4000,0.0102888
529.2000,0.0103895
529.0000,0.0104922
528.8000,0.0105926
528.6000,0.0106935
528.4000,0.0107891
528.2000,0.0108967
528.0000,0.0109974
527.8000,0.0110987
527.6000,0.0112012
527.4000,0.0113084
527.2000,0.011413
527.0000,0.0115186
526.8000,0.0116251
526.6000,0.0117364
526.4000,0.0118482
526.2000,0.0119567
526.0000,0.0120651
525.8000,0.012176
525.6000,0.0122927
525.4000,0.0124071
525.2000,0.0125252
525.0000,0.0126416
524.8000,0.0127618
524.6000,0.0128798
524.4000,0.0129995
524.2000,0.0131176
524.0000,0.0132431
523.8000,0.0133666
523.6000,0.0134919
523.4000,0.0136148
523.2000,0.0137428
523.0000,0.0138749
522.8000,0.0140022
522.6000,0.014138
522.4000,0.0142685
522.2000,0.0144096
522.0000,0.0145462
521.8000,0.0146843
521.6000,0.0148227
521.4000,0.0149667
521.2000,0.0151139
521.0000,0.0152596
520.8000,0.0154029
520.6000,0.0155522
520.4000,0.0157025
520.2000,0.0158559
520.0000,0.0160084
519.8000,0.0161592
519.6000,0.016313
519.4000,0.0164695
519.2000,0.0166309
519.0000,0.0167844
518.8000,0.01694
518.6000,0.0170949
518.4000,0.0172531
518.2000,0.0174113
518.0000,0.0175716
517.8000,0.0177345
517.6000,0.0178976
517.4000,0.0180582
517.2000,0.0182165
517.0000,0.0183759
516.8000,0.0185431
516.6000,0.018711
516.4000,0.0188846
516.2000,0.0190528
516.0000,0.0192196
515.8000,0.019392
515.6000,0.0195692
515.4000,0.0197478
515.2000,0.0199318
515.0000,0.020115
514.8000,0.0202996
514.6000,0.020485
514.4000,0.0206732
514.2000,0.020865
514.0000,0.0210597
513.8000,0.0212567
513.6000,0.0214523
513.4000,0.0216469
513.2000,0.0218397
513.0000,0.022034
512.8000,0.0222347
512.6000,0.0224331
512.4000,0.0226381
512.2000,0.0228422
512.0000,0.0230455
511.8000,0.0232532
511.6000,0.0234568
511.4000,0.0236665
511.2000,0.0238693
511.0000,0.0240778
510.8000,0.0242937
510.6000,0.0245101
510.4000,0.0247255
510.2000,0.0249484
510.0000,0.0251746
509.8000,0.0253933
509.6000,0.025619
509.4000,0.0258444
509.2000,0.0260668
509.0000,0.0262924
508.8000,0.0265208
508.6000,0.0267473
508.4000,0.0269843
508.2000,0.0272161
508.0000,0.0274543
507.8000,0.0276925
507.6000,0.0279305
507.4000,0.0281715
507.2000,0.0284129
507.0000,0.028649
506.8000,0.0288888
506.6000,0.0291423
506.4000,0.0293891
506.2000,0.0296358
506.0000,0.0298831
505.8000,0.0301392
505.6000,0.0303994
505.4000,0.0306648
505.2000,0.030931
505.0000,0.0312006
504.8000,0.0314654
504.6000,0.0317321
504.4000,0.0320004
504.2000,0.0322688
504.0000,0.0325359
503.8000,0.032812
503.6000,0.0330947
503.4000,0.0333705
503.2000,0.0336528
503.0000,0.0339409
502.8000,0.0342296
502.6000,0.0345127
502.4000,0.034795
502.2000,0.0350751
502.0000,0.0353568
501.8000,0.0356428
501.6000,0.0359315
501.4000,0.0362234
501.2000,0.0365153
501.0000,0.0368124
500.8000,0.0371154
500.6000,0.0374152
500.4000,0.0377066
500.2000,0.0380062
500.0000,0.0386312
499.8000,0.0389356
499.6000,0.0392479
499.4000,0.0395641
499.2000,0.0398806
499.0000,0.040192
498.8000,0.0405091
498.6000,0.0408304
498.4000,0.0411511
498.2000,0.0414739
498.0000,0.0417996
497.8000,0.04213
497.6000,0.04246
497.4000,0.0427824
497.2000,0.0431156
497.0000,0.0434481
496.8000,0.0437833
496.6000,0.044123
496.4000,0.044454
496.2000,0.0447879
496.0000,0.0451286
495.8000,0.0454693
495.6000,0.0458108
495.4000,0.0461501
495.2000,0.0464883
495.0000,0.0468334
494.8000,0.0471787
494.6000,0.0475267
494.4000,0.0478751
494.2000,0.0482329
494.0000,0.0485858
493.8000,0.0489411
493.6000,0.0493002
493.4000,0.0496578
493.2000,0.0500278
493.0000,0.0504011
492.8000,0.0507727
492.6000,0.051146
492.4000,0.0515182
492.2000,0.0518921
492.0000,0.0522794
491.8000,0.0526629
491.6000,0.0530512
491.4000,0.0534363
491.2000,0.0538264
491.0000,0.0542071
490.8000,0.0545912
490.6000,0.0549742
490.4000,0.0553618
490.2000,0.0557538
490.0000,0.0561426
489.8000,0.0565306
489.6000,0.0569307
489.4000,0.057339
489.2000,0.0577427
489.0000,0.0581469
488.8000,0.0585482
488.6000,0.058954
488.4000,0.0593564
488.2000,0.0597676
488.0000,0.0601672
487.8000,0.0605851
487.6000,0.0610039
487.4000,0.0614266
487.2000,0.0618471
487.0000,0.0622663
486.8000,0.0626857
486.6000,0.0631114
486.4000,0.063526
486.2000,0.0639332
486.0000,0.0643585
485.8000,0.0647903
485.6000,0.0652111
485.4000,0.0656378
485.2000,0.0660707
485.0000,0.0665004
484.8000,0.0669337
484.6000,0.0673606
484.4000,0.0677973
484.2000,0.0682264
484.0000,0.0686615
483.8000,0.0691082
483.6000,0.0695554
483.4000,0.0699937
483.2000,0.0704429
483.0000,0.0708976
482.8000,0.0713402
482.6000,0.0717734
482.4000,0.0722191
482.2000,0.0726691
482.0000,0.0731117
481.8000,0.0735554
481.6000,0.0740169
481.4000,0.0744721
481.2000,0.0749153
481.0000,0.0753728
480.8000,0.075812
480.6000,0.0762516
480.4000,0.0766986
480.2000,0.0771509
480.0000,0.0776008
479.8000,0.0780438
479.6000,0.0784936
479.4000,0.0789555
479.2000,0.0794131
479.0000,0.0798635
478.8000,0.080314
478.6000,0.0807712
478.4000,0.0812243
478.2000,0.081684
478.0000,0.0821572
477.8000,0.0826187
477.6000,0.0830901
477.4000,0.0835573
477.2000,0.0840228
477.0000,0.0844907
476.8000,0.0849576
476.6000,0.0854288
476.4000,0.0858974
476.2000,0.0863526
476.0000,0.0868153
475.8000,0.0872765
475.6000,0.0877501
475.4000,0.0882214
475.2000,0.0886826
475.0000,0.0891443
474.8000,0.0895956
474.6000,0.0900586
474.4000,0.0905256
474.2000,0.0909947
474.0000,0.0914528
473.8000,0.0919123
473.6000,0.0923741
473.4000,0.092833
473.2000,0.0932977
473.0000,0.0937706
472.8000,0.0942404
472.6000,0.0947109
472.4000,0.0951743
472.2000,0.0956345
472.0000,0.0960911
471.8000,0.0965503
471.6000,0.097023
471.4000,0.0974852
471.2000,0.0979526
471.0000,0.0984126
470.8000,0.0988828
470.6000,0.0993412
470.4000,0.0998012
470.2000,0.100255
470.0000,0.10071
469.8000,0.101178
469.6000,0.101635
469.4000,0.10209
469.2000,0.102541
469.0000,0.102996
468.8000,0.103458
468.6000,0.103916
468.4000,0.104366
468.2000,0.104823
468.0000,0.105263
467.8000,0.105716
467.6000,0.106155
467.4000,0.106594
467.2000,0.107025
467.0000,0.107472
466.8000,0.107927
466.6000,0.108357
466.4000,0.10879
466.2000,0.109229
466.0000,0.109664
465.8000,0.110106
465.6000,0.110539
465.4000,0.110969
465.2000,0.111389
465.0000,0.111807
464.8000,0.112231
464.6000,0.112646
464.4000,0.113071
464.2000,0.113501
464.0000,0.113924
463.8000,0.114346
463.6000,0.114751
463.4000,0.115163
463.2000,0.115573
463.0000,0.115984
462.8000,0.1164
462.6000,0.116795
462.4000,0.117196
462.2000,0.117593
462.0000,0.118004
461.8000,0.118397
461.6000,0.118792
461.4000,0.11919
461.2000,0.119581
461.0000,0.119967
460.8000,0.120351
460.6000,0.120723
460.4000,0.121091
460.2000,0.121461
460.0000,0.121827
459.8000,0.122191
459.6000,0.122552
459.4000,0.122914
459.2000,0.123274
459.0000,0.123638
458.8000,0.123986
458.6000,0.124345
458.4000,0.124694
458.2000,0.125021
458.0000,0.125364
457.8000,0.125703
457.6000,0.126036
457.4000,0.126378
457.2000,0.126709
457.0000,0.12703
456.8000,0.127358
456.6000,0.127669
456.4000,0.127986
456.2000,0.128293
456.0000,0.128597
455.8000,0.128892
455.6000,0.129187
455.4000,0.129478
455.2000,0.129774
455.0000,0.130068
454.8000,0.130346
454.6000,0.130618
454.4000,0.130902
454.2000,0.131167
454.0000,0.131444
453.8000,0.131715
453.6000,0.131964
453.4000,0.132223
453.2000,0.132461
453.0000,0.132713
452.8000,0.132969
452.6000,0.133213
452.4000,0.133441
452.2000,0.133677
452.0000,0.133907
451.8000,0.134135
451.6000,0.134344
451.4000,0.134547
451.2000,0.13474
451.0000,0.134943
450.8000,0.135136
450.6000,0.135323
450.4000,0.135515
450.2000,0.135697
450.0000,0.135875
449.8000,0.136041
449.6000,0.136201
449.4000,0.136359
449.2000,0.136521
449.0000,0.136664
448.8000,0.136803
448.6000,0.136945
448.4000,0.137094
448.2000,0.137236
448.0000,0.137387
447.8000,0.137516
447.6000,0.137634
447.4000,0.137746
447.2000,0.137867
447.0000,0.137976
446.8000,0.138085
446.6000,0.138186
446.4000,0.138275
446.2000,0.138367
446.0000,0.138449
445.8000,0.138525
445.6000,0.138602
445.4000,0.138676
445.2000,0.138742
445.0000,0.138807
444.8000,0.138851
444.6000,0.138892
444.4000,0.138936
444.2000,0.138984
444.0000,0.139019
443.8000,0.139054
443.6000,0.139078
443.4000,0.139098
443.2000,0.139113
443.0000,0.139115
442.8000,0.139122
442.6000,0.139126
442.4000,0.139111
442.2000,0.13909
442.0000,0.139064
441.8000,0.139047
441.6000,0.13901
441.4000,0.138989
441.2000,0.138948
441.0000,0.138903
440.8000,0.138859
440.6000,0.138795
440.4000,0.138722
440.2000,0.13864
440.0000,0.138569
439.8000,0.138488
439.6000,0.138411
439.4000,0.138324
439.2000,0.138236
439.0000,0.138142
438.8000,0.138032
438.6000,0.137919
438.4000,0.137807
438.2000,0.137672
438.0000,0.137556
437.8000,0.137418
437.6000,0.137273
437.4000,0.137136
437.2000,0.137009
437.0000,0.136865
436.8000,0.136708
436.6000,0.13655
436.4000,0.136378
436.2000,0.136202
436.0000,0.136007
435.8000,0.135817
435.6000,0.135618
435.4000,0.135419
435.2000,0.135224
435.0000,0.135025
434.8000,0.134798
434.6000,0.134606
434.4000,0.134391
434.2000,0.134164
434.0000,0.133925
433.8000,0.133689
433.6000,0.133446
433.4000,0.133187
433.2000,0.132949
433.0000,0.132688
432.8000,0.132451
432.6000,0.13219
432.4000,0.131942
432.2000,0.131671
432.0000,0.131392
431.8000,0.131117
431.6000,0.130853
431.4000,0.130551
431.2000,0.130248
431.0000,0.129962
430.8000,0.129662
430.6000,0.129352
430.4000,0.129042
430.2000,0.128762
430.0000,0.128438
429.8000,0.128132
429.6000,0.127798
429.4000,0.127469
429.2000,0.127134
429.0000,0.126801
428.8000,0.126468
428.6000,0.126109
428.4000,0.125752
428.2000,0.125393
428.0000,0.125049
427.8000,0.124691
427.6000,0.12435
427.4000,0.124007
427.2000,0.123664
427.0000,0.123285
426.8000,0.12291
426.6000,0.122543
426.4000,0.122169
426.2000,0.121793
426.0000,0.121427
425.8000,0.121039
425.6000,0.120664
425.4000,0.120299
425.2000,0.119909
425.0000,0.119533
424.8000,0.119129
424.6000,0.118736
424.4000,0.118325
424.2000,0.117925
424.0000,0.117509
423.8000,0.117117
423.6000,0.11673
423.4000,0.116313
423.2000,0.115917
423.0000,0.115506
422.8000,0.115086
422.6000,0.114669
422.4000,0.114247
422.2000,0.113821
422.0000,0.113412
421.8000,0.11299
421.6000,0.112569
421.4000,0.112161
421.2000,0.111738
421.0000,0.111359
420.8000,0.111021
420.6000,0.110699
420.4000,0.110368
420.2000,0.110002
420.0000,0.109637
419.8000,0.109305
419.6000,0.108966
419.4000,0.108666
419.2000,0.108351
419.0000,0.108043
418.8000,0.107741
418.6000,0.107429
418.4000,0.107073
418.2000,0.106617
418.0000,0.10615
417.8000,0.105643
417.6000,0.105086
417.4000,0.104486
417.2000,0.103917
417.0000,0.103388
416.8000,0.102852
416.6000,0.102311
416.4000,0.101759
416.2000,0.101184
416.0000,0.100638
415.8000,0.100066
415.6000,0.0994795
415.4000,0.098938
415.2000,0.0984383
415.0000,0.098009
414.8000,0.097613
414.6000,0.0972327
414.4000,0.0968248
414.2000,0.0964609
414.0000,0.0960568
413.8000,0.0956607
413.6000,0.0952723
413.4000,0.0948753
413.2000,0.0944799
413.0000,0.094084
412.8000,0.0936933
412.6000,0.0932709
412.4000,0.0928871
412.2000,0.0924918
412.0000,0.0921462
411.8000,0.091787
411.6000,0.0914513
411.4000,0.0911058
411.2000,0.0908043
411.0000,0.090497
410.8000,0.0901992
410.6000,0.0899227
410.4000,0.0896474
410.2000,0.0893662
410.0000,0.0890987
409.8000,0.0888835
409.6000,0.0886056
409.4000,0.0884022
409.2000,0.0881959
409.0000,0.087986
408.8000,0.0877433
408.6000,0.0875406
408.4000,0.0873513
408.2000,0.0871327
408.0000,0.0869433
407.8000,0.0867544
407.6000,0.0865677
407.4000,0.0864203
407.2000,0.0862762
407.0000,0.0861233
406.8000,0.0860319
406.6000,0.0858778
406.4000,0.0857738
406.2000,0.0856914
406.0000,0.0855924
405.8000,0.0854727
405.6000,0.0854357
405.4000,0.0854319
405.2000,0.0854002
405.0000,0.0853989
404.8000,0.085412
404.6000,0.0854354
404.4000,0.0854647
404.2000,0.0855135
404.0000,0.0855435
403.8000,0.0856568
403.6000,0.0857481
403.4000,0.0858722
403.2000,0.086023
403.0000,0.0862349
402.8000,0.0864511
402.6000,0.0866603
402.4000,0.0868457
402.2000,0.0870825
402.0000,0.0872707
401.8000,0.087524
401.6000,0.0878155
401.4000,0.0881296
401.2000,0.0884462
401.0000,0.088784
400.8000,0.0892474
400.6000,0.0895919
400.4000,0.0899798
400.2000,0.0904137
400.0000,0.0854495
399.8000,0.0858333
399.6000,0.0862269
399.4000,0.0866633
399.2000,0.0870908
399.0000,0.0875229
398.8000,0.0880037
398.6000,0.0885087
398.4000,0.0890204
398.2000,0.0895688
398.0000,0.0901467
397.8000,0.0907604
397.6000,0.0913766
397.4000,0.0920339
397.2000,0.092703
397.0000,0.0934319
396.8000,0.0941493
396.6000,0.0949003
396.4000,0.0956897
396.2000,0.0964976
396.0000,0.0973393
395.8000,0.0981981
395.6000,0.0990769
395.4000,0.0999718
395.2000,0.100943
395.0000,0.101903
394.8000,0.102913
394.6000,0.103933
394.4000,0.105031
394.2000,0.106172
394.0000,0.107323
393.8000,0.108495
393.6000,0.109692
393.4000,0.11096
393.2000,0.11223
393.0000,0.113547
392.8000,0.114877
392.6000,0.116276
392.4000,0.11772
392.2000,0.119202
392.0000,0.120677
391.8000,0.122207
391.6000,0.123777
391.4000,0.125381
391.2000,0.127016
391.0000,0.128662
390.8000,0.130347
390.6000,0.132085
390.4000,0.133892
390.2000,0.135688
390.0000,0.137535
389.8000,0.139402
389.6000,0.141349
389.4000,0.143325
389.2000,0.145305
389.0000,0.147326
388.8000,0.14939
388.6000,0.151524
388.4000,0.153646
388.2000,0.155811
388.0000,0.158
387.8000,0.160229
387.6000,0.16252
387.4000,0.164828
387.2000,0.167156
387.0000,0.169542
386.8000,0.171951
386.6000,0.174433
386.4000,0.176918
386.2000,0.17944
386.0000,0.182009
385.8000,0.184628
385.6000,0.187267
385.4000,0.189914
385.2000,0.192632
385.0000,0.195373
384.8000,0.198134
384.6000,0.200935
384.4000,0.203783
384.2000,0.206664
384.0000,0.209562
383.8000,0.212495
383.6000,0.215451
383.4000,0.218419
383.2000,0.221428
383.0000,0.224462
382.8000,0.227515
382.6000,0.230582
382.4000,0.233699
382.2000,0.236832
382.0000,0.239976
381.8000,0.243163
381.6000,0.246369
381.4000,0.249582
381.2000,0.252787
381.0000,0.256003
380.8000,0.259252
380.6000,0.262508
380.4000,0.265789
380.2000,0.269093
380.0000,0.272377
379.8000,0.27565
379.6000,0.278932
379.4000,0.282213
379.2000,0.285481
379.0000,0.288778
378.8000,0.292081
378.6000,0.295346
378.4000,0.298619
378.2000,0.301898
378.0000,0.30513
377.8000,0.308384
377.6000,0.311623
377.4000,0.314862
377.2000,0.318094
377.0000,0.321294
376.8000,0.324465
376.6000,0.327663
376.4000,0.330853
376.2000,0.334014
376.0000,0.337163
375.8000,0.340263
375.6000,0.343339
375.4000,0.346411
375.2000,0.349482
375.0000,0.352548
374.8000,0.355631
374.6000,0.358657
374.4000,0.361655
374.2000,0.364621
374.0000,0.367534
373.8000,0.370434
373.6000,0.373342
373.4000,0.376197
373.2000,0.37902
373.0000,0.381847
372.8000,0.384678
372.6000,0.387483
372.4000,0.390255
372.2000,0.392987
372.0000,0.395661
371.8000,0.398302
371.6000,0.400929
371.4000,0.40351
371.2000,0.406091
371.0000,0.408619
370.8000,0.411192
370.6000,0.413713
370.4000,0.416236
370.2000,0.418746
370.0000,0.424366
369.8000,0.426818
369.6000,0.429171
369.4000,0.431553
369.2000,0.433845
369.0000,0.436133
368.8000,0.438472
368.6000,0.440693
368.4000,0.44298
368.2000,0.445238
368.0000,0.447439
367.8000,0.449639
367.6000,0.451907
367.4000,0.454127
367.2000,0.456309
367.0000,0.458492
366.8000,0.460616
366.6000,0.462786
366.4000,0.464945
366.2000,0.467089
366.0000,0.469249
365.8000,0.471399
365.6000,0.473552
365.4000,0.475662
365.2000,0.47777
365.0000,0.479939
364.8000,0.482075
364.6000,0.48429
364.4000,0.48643
364.2000,0.488584
364.0000,0.490705
363.8000,0.492865
363.6000,0.495033
363.4000,0.497126
363.2000,0.499278
363.0000,0.501379
362.8000,0.503545
362.6000,0.505678
362.4000,0.507806
362.2000,0.510003
362.0000,0.512161
361.8000,0.514295
361.6000,0.516454
361.4000,0.518565
361.2000,0.520644
361.0000,0.52278
360.8000,0.524891
360.6000,0.52698
360.4000,0.529096
360.2000,0.531223
360.0000,0.533276
359.8000,0.535437
359.6000,0.537525
359.4000,0.539574
359.2000,0.541618
359.0000,0.543619
358.8000,0.545637
358.6000,0.547624
358.4000,0.549625
358.2000,0.551547
358.0000,0.553505
357.8000,0.555416
357.6000,0.557323
357.4000,0.559224
357.2000,0.561079
357.0000,0.562864
356.8000,0.564678
356.6000,0.566355
356.4000,0.568044
356.2000,0.569738
356.0000,0.571379
355.8000,0.573013
355.6000,0.574601
355.4000,0.576134
355.2000,0.577626
355.0000,0.579135
354.8000,0.580598
354.6000,0.581993
354.4000,0.583396
354.2000,0.58474
354.0000,0.586037
353.8000,0.587339
353.6000,0.588551
353.4000,0.589797
353.2000,0.590999
353.0000,0.592132
352.8000,0.593226
352.6000,0.59432
352.4000,0.595351
352.2000,0.59634
352.0000,0.597283
351.8000,0.598186
351.6000,0.599063
351.4000,0.599875
351.2000,0.600644
351.0000,0.601393
350.8000,0.602082
350.6000,0.602757
350.4000,0.603412
350.2000,0.604016
350.0000,0.60456
349.8000,0.605117
349.6000,0.605675
349.4000,0.606154
349.2000,0.606655
349.0000,0.607164
348.8000,0.607625
348.6000,0.608022
348.4000,0.608452
348.2000,0.608885
348.0000,0.609241
347.8000,0.609609
347.6000,0.609976
347.4000,0.610245
347.2000,0.610617
347.0000,0.610981
346.8000,0.611314
346.6000,0.611647
346.4000,0.611961
346.2000,0.612278
346.0000,0.612547
345.8000,0.612801
345.6000,0.613076
345.4000,0.613403
345.2000,0.613662
345.0000,0.613958
344.8000,0.614319
344.6000,0.614633
344.4000,0.614933
344.2000,0.615276
344.0000,0.61557
343.8000,0.615859
343.6000,0.616137
343.4000,0.616454
343.2000,0.616804
343.0000,0.617061
342.8000,0.617379
342.6000,0.617721
342.4000,0.618067
342.2000,0.618369
342.0000,0.618698
341.8000,0.619031
341.6000,0.619347
341.4000,0.619591
341.2000,0.61992
341.0000,0.620319
340.8000,0.620601
340.6000,0.620836
340.4000,0.621198
340.2000,0.621456
340.0000,0.618896
339.8000,0.619123
339.6000,0.619539
339.4000,0.619852
339.2000,0.620142
339.0000,0.620382
338.8000,0.620703
338.6000,0.62091
338.4000,0.621099
338.2000,0.621351
338.0000,0.621532
337.8000,0.621647
337.6000,0.621797
337.4000,0.621871
337.2000,0.622033
337.0000,0.622241
336.8000,0.622263
336.6000,0.622408
336.4000,0.62236
336.2000,0.622328
336.0000,0.622274
335.8000,0.622344
335.6000,0.622315
335.4000,0.622292
335.2000,0.622325
335.0000,0.622183
334.8000,0.622119
334.6000,0.622002
334.4000,0.621794
334.2000,0.621663
334.0000,0.621384
333.8000,0.62113
333.6000,0.620987
333.4000,0.620732
333.2000,0.620509
333.0000,0.620199
332.8000,0.619859
332.6000,0.619436
332.4000,0.619099
332.2000,0.618775
332.0000,0.618362
331.8000,0.617986
331.6000,0.617571
331.4000,0.61725
331.2000,0.616881
331.0000,0.616443
330.8000,0.616008
330.6000,0.615483
330.4000,0.614938
330.2000,0.614496
330.0000,0.614031
329.8000,0.613538
329.6000,0.613107
329.4000,0.6126
329.2000,0.612073
329.0000,0.611552
328.8000,0.611057
328.6000,0.610514
328.4000,0.609971
328.2000,0.609418
328.0000,0.608918
327.8000,0.608382
327.6000,0.608005
327.4000,0.607489
327.2000,0.606999
327.0000,0.606372
326.8000,0.605738
326.6000,0.6052
326.4000,0.604645
326.2000,0.604063
326.0000,0.603467
325.8000,0.602843
325.6000,0.60228
325.4000,0.601784
325.2000,0.601175
325.0000,0.600403
324.8000,0.59974
324.6000,0.599131
324.4000,0.598422
324.2000,0.59777
324.0000,0.597096
323.8000,0.596562
323.6000,0.595957
323.4000,0.595342
323.2000,0.59466
323.0000,0.594005
322.8000,0.593404
322.6000,0.592693
322.4000,0.591906
322.2000,0.591143
322.0000,0.590372
321.8000,0.589792
321.6000,0.58901
321.4000,0.588229
321.2000,0.587506
321.0000,0.586703
320.8000,0.585863
320.6000,0.58496
320.4000,0.584177
320.2000,0.583258
320.0000,0.582406
319.8000,0.581502
319.6000,0.580571
319.4000,0.579762
319.2000,0.578938
319.0000,0.577969
318.8000,0.577103
318.6000,0.576112
318.4000,0.575228
318.2000,0.57434
318.0000,0.573269
317.8000,0.572323
317.6000,0.571402
317.4000,0.570424
317.2000,0.569424
317.0000,0.568382
316.8000,0.567343
316.6000,0.566309
316.4000,0.565174
316.2000,0.564039
316.0000,0.562946
315.8000,0.56192
315.6000,0.560849
315.4000,0.559739
315.2000,0.558584
315.0000,0.557445
314.8000,0.556386
314.6000,0.555293
314.4000,0.554146
314.2000,0.553034
314.0000,0.551857
313.8000,0.550781
313.6000,0.549648
313.4000,0.548554
313.2000,0.547465
313.0000,0.546336
312.8000,0.545114
312.6000,0.543956
312.4000,0.542749
312.2000,0.541571
312.0000,0.540372
311.8000,0.539073
311.6000,0.537876
311.4000,0.536649
311.2000,0.535377
311.0000,0.534064
310.8000,0.532776
310.6000,0.531417
310.4000,0.530124
310.2000,0.528763
310.0000,0.527417
309.8000,0.526055
309.6000,0.524775
309.4000,0.523379
309.2000,0.52201
309.0000,0.520683
308.8000,0.519351
308.6000,0.518019
308.4000,0.516609
308.2000,0.515232
308.0000,0.513824
307.8000,0.51251
307.6000,0.51118
307.4000,0.510005
307.2000,0.508623
307.0000,0.507261
306.8000,0.505967
306.6000,0.504635
306.4000,0.50322
306.2000,0.501853
306.0000,0.500465
305.8000,0.499028
305.6000,0.49756
305.4000,0.496131
305.2000,0.494672
305.0000,0.493277
304.8000,0.491917
304.6000,0.490494
304.4000,0.489015
304.2000,0.487463
304.0000,0.486045
303.8000,0.484584
303.6000,0.483094
303.4000,0.481606
303.2000,0.480169
303.0000,0.478725
302.8000,0.477298
302.6000,0.475862
302.4000,0.474462
302.2000,0.472998
302.0000,0.471542
301.8000,0.470026
301.6000,0.468534
301.4000,0.467045
301.2000,0.465585
301.0000,0.464054
300.8000,0.462545
300.6000,0.461132
300.4000,0.459614
300.2000,0.458166
300.0000,0.456678
299.8000,0.455204
299.6000,0.453794
299.4000,0.452405
299.2000,0.450954
299.0000,0.449604
298.8000,0.448243
298.6000,0.446892
298.4000,0.445571
298.2000,0.444235
298.0000,0.442918
297.8000,0.441634
297.6000,0.44035
297.4000,0.439013
297.2000,0.437766
297.0000,0.436496
296.8000,0.435259
296.6000,0.433977
296.4000,0.432693
296.2000,0.43142
296.0000,0.430273
295.8000,0.429061
295.6000,0.427844
295.4000,0.426647
295.2000,0.425499
295.0000,0.424345
294.8000,0.423183
294.6000,0.422057
294.4000,0.420925
294.2000,0.419868
294.0000,0.418783
293.8000,0.417718
293.6000,0.416709
293.4000,0.415678
293.2000,0.414618
293.0000,0.413623
292.8000,0.412586
292.6000,0.411655
292.4000,0.410707
292.2000,0.40973
292.0000,0.408707
291.8000,0.407708
291.6000,0.406746
291.4000,0.405731
291.2000,0.404808
291.0000,0.403788
290.8000,0.402845
290.6000,0.401838
290.4000,0.400743
290.2000,0.399774
290.0000,0.398745
289.8000,0.397645
289.6000,0.396573
289.4000,0.39548
289.2000,0.394374
289.0000,0.393302
288.8000,0.392227
288.6000,0.391085
288.4000,0.390038
288.2000,0.388965
288.0000,0.387801
287.8000,0.386738
287.6000,0.385562
287.4000,0.384447
287.2000,0.383314
287.0000,0.382121
286.8000,0.380923
286.6000,0.379771
286.4000,0.37862
286.2000,0.377375
286.0000,0.376152
285.8000,0.374897
285.6000,0.373661
285.4000,0.372494
285.2000,0.37117
285.0000,0.369907
284.8000,0.368633
284.6000,0.367266
284.4000,0.365944
284.2000,0.36463
284.0000,0.363355
283.8000,0.362072
283.6000,0.360863
283.4000,0.359592
283.2000,0.358221
283.0000,0.356987
282.8000,0.355814
282.6000,0.354579
282.4000,0.353333
282.2000,0.352102
282.0000,0.350901
281.8000,0.349701
281.6000,0.348534
281.4000,0.347439
281.2000,0.346358
281.0000,0.345265
280.8000,0.344212
280.6000,0.343202
280.4000,0.342202
280.2000,0.34121
280.0000,0.340326
279.8000,0.339383
279.6000,0.338521
279.4000,0.337753
279.2000,0.336993
279.0000,0.336273
278.8000,0.335583
278.6000,0.335029
278.4000,0.334489
278.2000,0.334002
278.0000,0.33356
277.8000,0.3332
277.6000,0.332971
277.4000,0.332764
277.2000,0.332571
277.0000,0.332481
276.8000,0.332521
276.6000,0.332693
276.4000,0.332763
276.2000,0.332968
276.0000,0.33328
275.8000,0.333721
275.6000,0.334289
275.4000,0.334816
275.2000,0.335488
275.0000,0.336263
274.8000,0.33716
274.6000,0.338158
274.4000,0.339155
274.2000,0.340308
274.0000,0.341613
273.8000,0.34303
273.6000,0.344509
273.4000,0.346041
273.2000,0.347778
273.0000,0.349617
272.8000,0.351492
272.6000,0.353448
272.4000,0.355499
272.2000,0.357716
272.0000,0.360035
271.8000,0.36238
271.6000,0.364832
271.4000,0.367401
271.2000,0.370071
271.0000,0.372831
270.8000,0.375649
270.6000,0.378561
270.4000,0.381528
270.2000,0.384626
270.0000,0.387782
269.8000,0.391054
269.6000,0.394468
269.4000,0.397856
269.2000,0.401388
269.0000,0.404981
268.8000,0.408561
268.6000,0.412279
268.4000,0.416052
268.2000,0.419829
268.0000,0.42371
267.8000,0.427587
267.6000,0.431543
267.4000,0.435558
267.2000,0.43966
267.0000,0.443731
266.8000,0.447846
266.6000,0.451956
266.4000,0.456083
266.2000,0.460276
266.0000,0.464481
265.8000,0.468666
265.6000,0.472959
265.4000,0.477221
265.2000,0.481518
265.0000,0.48583
264.8000,0.490133
264.6000,0.494483
264.4000,0.498861
264.2000,0.503214
264.0000,0.507593
263.8000,0.512023
263.6000,0.516474
263.4000,0.52089
263.2000,0.525317
263.0000,0.529756
262.8000,0.534169
262.6000,0.538647
262.4000,0.543054
262.2000,0.5475
262.0000,0.551891
261.8000,0.55628
261.6000,0.560664
261.4000,0.565034
261.2000,0.569302
261.0000,0.573618
260.8000,0.577851
260.6000,0.582027
260.4000,0.586157
260.2000,0.590283
260.0000,0.59433
259.8000,0.598375
259.6000,0.602364
259.4000,0.60626
259.2000,0.610161
259.0000,0.613999
258.8000,0.617803
258.6000,0.621522
258.4000,0.625232
258.2000,0.628908
258.0000,0.632556
257.8000,0.636104
257.6000,0.639598
257.4000,0.643084
257.2000,0.646507
257.0000,0.649877
256.8000,0.653253
256.6000,0.656552
256.4000,0.659817
256.2000,0.663091
256.0000,0.66625
255.8000,0.669396
255.6000,0.672519
255.4000,0.675596
255.2000,0.678649
255.0000,0.681605
254.8000,0.684569
254.6000,0.687542
254.4000,0.690484
254.2000,0.693337
254.0000,0.696085
253.8000,0.698837
253.6000,0.70159
253.4000,0.704287
253.2000,0.707003
253.0000,0.709623
252.8000,0.712233
252.6000,0.714762
252.4000,0.717247
252.2000,0.719687
252.0000,0.722063
251.8000,0.724391
251.6000,0.726611
251.4000,0.728687
251.2000,0.730691
251.0000,0.73266
250.8000,0.734651
250.6000,0.736482
250.4000,0.738149
250.2000,0.739772
250.0000,0.741246
249.8000,0.742587
249.6000,0.743842
249.4000,0.744988
249.2000,0.746071
249.0000,0.747086
248.8000,0.747887
248.6000,0.748643
248.4000,0.749364
248.2000,0.749972
248.0000,0.750537
247.8000,0.750919
247.6000,0.751326
247.4000,0.751516
247.2000,0.751663
247.0000,0.751719
246.8000,0.751745
246.6000,0.751744
246.4000,0.751638
246.2000,0.751404
246.0000,0.750979
245.8000,0.750545
245.6000,0.750083
245.4000,0.749363
245.2000,0.748606
245.0000,0.747765
244.8000,0.746724
244.6000,0.745521
244.4000,0.744117
244.2000,0.742716
244.0000,0.741086
243.8000,0.739221
243.6000,0.737081
243.4000,0.734603
243.2000,0.7319
243.0000,0.729165
242.8000,0.726155
242.6000,0.722662
242.4000,0.718864
242.2000,0.714751
242.0000,0.710356
241.8000,0.705872
241.6000,0.701072
241.4000,0.696214
241.2000,0.690806
241.0000,0.685547
240.8000,0.680115
240.6000,0.674905
240.4000,0.669853
240.2000,0.665091
240.0000,0.660361
239.8000,0.655537
239.6000,0.651741
239.4000,0.648359
239.2000,0.645314
239.0000,0.643221
238.8000,0.640967
238.6000,0.638717
238.4000,0.636665
238.2000,0.635385
238.0000,0.634866
237.8000,0.634015
237.6000,0.633215
237.4000,0.632504
237.2000,0.631747
237.0000,0.631564
236.8000,0.631885
236.6000,0.632036
236.4000,0.632124
236.2000,0.632182
236.0000,0.631281
235.8000,0.631229
235.6000,0.631323
235.4000,0.631372
235.2000,0.631217
235.0000,0.631251
234.8000,0.631053
234.6000,0.631284
234.4000,0.630987
234.2000,0.630893
234.0000,0.630906
233.8000,0.630836
233.6000,0.630903
233.4000,0.630902
233.2000,0.63042
233.0000,0.630464
232.8000,0.630692
232.6000,0.630211
232.4000,0.629987
232.2000,0.630263
232.0000,0.630553
231.8000,0.630561
231.6000,0.630102
231.4000,0.629826
231.2000,0.630668
231.0000,0.630868
230.8000,0.631316
230.6000,0.630823
230.4000,0.63075
230.2000,0.630435
230.0000,0.630486
229.8000,0.630433
229.6000,0.630621
229.4000,0.631297
229.2000,0.631009
229.0000,0.631193
228.8000,0.631397
228.6000,0.631537
228.4000,0.632301
228.2000,0.632044
228.0000,0.631819
227.8000,0.632255
227.6000,0.631796
227.4000,0.63243
227.2000,0.631889
227.0000,0.631659
226.8000,0.632257
226.6000,0.632337
226.4000,0.632579
226.2000,0.632538
226.0000,0.632003
225.8000,0.631592
225.6000,0.631528
225.4000,0.630745
225.2000,0.629957
225.0000,0.629892
224.8000,0.629568
224.6000,0.629221
224.4000,0.629265
224.2000,0.629142
224.0000,0.629885
223.8000,0.630638
223.6000,0.630558
223.4000,0.629371
223.2000,0.629193
223.0000,0.628956
222.8000,0.629786
222.6000,0.629723
222.4000,0.62964
222.2000,0.630361
222.0000,0.630231
221.8000,0.629955
221.6000,0.630238
221.4000,0.630004
221.2000,0.63011
221.0000,0.629674
220.8000,0.629084
220.6000,0.628879
220.4000,0.628504
220.2000,0.628854
220.0000,0.628821
219.8000,0.628819
219.6000,0.628462
219.4000,0.628779
219.2000,0.628491
219.0000,0.628052
218.8000,0.628175
218.6000,0.628695
218.4000,0.628177
218.2000,0.628046
218.0000,0.627415
217.8000,0.627606
217.6000,0.627379
217.4000,0.626862
217.2000,0.626456
217.0000,0.625956
216.8000,0.625949
216.6000,0.625925
216.4000,0.626294
216.2000,0.625713
216.0000,0.625296
215.8000,0.624666
215.6000,0.624318
215.4000,0.623664
215.2000,0.623138
215.0000,0.622845
214.8000,0.623542
214.6000,0.623693
214.4000,0.623596
214.2000,0.623855
214.0000,0.623822
213.8000,0.624294
213.6000,0.624573
213.4000,0.624384
213.2000,0.624357
213.0000,0.624395
212.8000,0.624712
212.6000,0.625442
212.4000,0.625562
212.2000,0.62486
212.0000,0.625621
211.8000,0.625735
211.6000,0.625064
211.4000,0.62417
211.2000,0.623683
211.0000,0.622925
210.8000,0.622934
210.6000,0.622852
210.4000,0.62222
210.2000,0.621719
210.0000,0.620999
209.8000,0.620262
209.6000,0.619735
209.4000,0.618627
209.2000,0.618186
209.0000,0.61851
208.8000,0.617645
208.6000,0.616562
208.4000,0.61552
208.2000,0.615199
208.0000,0.61597
207.8000,0.616109
207.6000,0.615098
207.4000,0.614374
207.2000,0.613333
207.0000,0.613073
206.8000,0.612971
206.6000,0.612481
206.4000,0.611919
206.2000,0.611854
206.0000,0.611591
205.8000,0.610573
205.6000,0.609829
205.4000,0.609308
205.2000,0.609367
205.0000,0.60898
204.8000,0.606899
204.6000,0.606072
204.4000,0.605794
204.2000,0.605263
204.0000,0.605067
203.8000,0.603632
203.6000,0.602508
203.4000,0.602016
203.2000,0.601049
203.0000,0.600059
202.8000,0.598728
202.6000,0.598093
202.4000,0.597229
202.2000,0.59659
202.0000,0.595484
201.8000,0.59452
201.6000,0.594133
201.4000,0.593049
201.2000,0.591546
201.0000,0.590565
200.8000,0.589461
200.6000,0.588839
200.4000,0.587221
200.2000,0.585971
200.0000,0.584571

##### Extended Information
[Rg]
,c
Rg


,{ww

[f[^]
,2024/07/09 16:51

f[^^Cv,uf[^
,Wavelength [nm]
c,Abs
X^[g,800 nm
Gh,200 nm
f[^u,0.2 nm
f[^,3001    

[]
u,V-730
@,V-730
VA,C235561798

,2024/07/09 16:50

[h,Abs
,800 - 200 nm
f[^u,0.2 nm
oh,1.0 nm
X|X,0.96 sec
[h,A
x,200 nm/min
,340 nm
,D2/WI
tB^[,Xebv
,x[XC
J,1

