TITLE,c
DATA TYPE,ULTRAVIOLET SPECTRUM
ORIGIN,JASCO
OWNER,
DATE,24/07/09
TIME,17:01:38
SPECTROMETER/DATA SYSTEM,
LOCALE,1041
RESOLUTION,
DELTAX,-0.2
XUNITS,NANOMETERS
YUNITS,ABSORBANCE
FIRSTX,  800.0000
LASTX,  200.0000
NPOINTS,    3001
FIRSTY,     0.00095
MAXY,     0.74111
MINY,     0.00023
XYDATA
800.0000,0.000949792
799.8000,0.000949792
799.6000,0.000946569
799.4000,0.000939346
799.2000,0.000934451
799.0000,0.00093063
798.8000,0.00092872
798.6000,0.000928243
798.4000,0.00092484
798.2000,0.00092478
798.0000,0.00092096
797.8000,0.000918393
797.6000,0.000915587
797.4000,0.000916244
797.2000,0.000916781
797.0000,0.000919288
796.8000,0.00091905
796.6000,0.000921557
796.4000,0.000921736
796.2000,0.000928243
796.0000,0.000928422
795.8000,0.000931585
795.6000,0.000933257
795.4000,0.000937018
795.2000,0.000940122
795.0000,0.000942868
794.8000,0.000947285
794.6000,0.000947882
794.4000,0.000948777
794.2000,0.00095015
794.0000,0.000952896
793.8000,0.000947285
793.6000,0.000938629
793.4000,0.000931287
793.2000,0.00092878
793.0000,0.000923467
792.8000,0.000927049
792.6000,0.000925437
792.4000,0.000927526
792.2000,0.000927765
792.0000,0.000926511
791.8000,0.000925676
791.6000,0.000926153
791.4000,0.000925318
791.2000,0.000921079
791.0000,0.000914811
790.8000,0.000914632
790.6000,0.000917139
790.4000,0.000921796
790.2000,0.000924959
790.0000,0.000928123
789.8000,0.000927347
789.6000,0.00092478
789.4000,0.000920661
789.2000,0.000914573
789.0000,0.00091123
788.8000,0.00090729
788.6000,0.000902813
788.4000,0.000897619
788.2000,0.000896605
788.0000,0.000899351
787.8000,0.0008975
787.6000,0.000894396
787.4000,0.000897321
787.2000,0.000900306
787.0000,0.00090329
786.8000,0.000902693
786.6000,0.000905201
786.4000,0.000904604
786.2000,0.00090526
786.0000,0.000908484
785.8000,0.000907648
785.6000,0.000911468
785.4000,0.000912364
785.2000,0.000918274
785.0000,0.000922273
784.8000,0.000919826
784.6000,0.000925676
784.4000,0.000926989
784.2000,0.000924124
784.0000,0.000920542
783.8000,0.000918035
783.6000,0.000916423
783.4000,0.000914811
783.2000,0.000914214
783.0000,0.000912364
782.8000,0.00090526
782.6000,0.000907827
782.4000,0.000906753
782.2000,0.000905977
782.0000,0.000898455
781.8000,0.00089171
781.6000,0.000885442
781.4000,0.000878935
781.2000,0.000871832
781.0000,0.000869921
780.8000,0.000870578
780.6000,0.000869981
780.4000,0.000868131
780.2000,0.000867951
780.0000,0.000863295
779.8000,0.000865265
779.6000,0.000864907
779.4000,0.000861325
779.2000,0.000855416
779.0000,0.000852073
778.8000,0.00085064
778.6000,0.000847178
778.4000,0.000848193
778.2000,0.000846581
778.0000,0.000846641
777.8000,0.000841746
777.6000,0.000837448
777.4000,0.00083303
777.2000,0.000831359
777.0000,0.000828673
776.8000,0.000827658
776.6000,0.000822226
776.4000,0.000819719
776.2000,0.000814704
776.0000,0.000809451
775.8000,0.000805691
775.6000,0.000801333
775.4000,0.0007999
775.2000,0.00079596
775.0000,0.000793035
774.8000,0.000787782
774.6000,0.000783425
774.4000,0.000777515
774.2000,0.000771008
774.0000,0.000763666
773.8000,0.000757935
773.6000,0.000755488
773.4000,0.000755846
773.2000,0.00075901
773.0000,0.000759666
772.8000,0.000764323
772.6000,0.000767128
772.4000,0.000774172
772.2000,0.00077841
772.0000,0.000782589
771.8000,0.000785395
771.6000,0.000789036
771.4000,0.000792439
771.2000,0.00079608
771.0000,0.000803064
770.8000,0.000809451
770.6000,0.0008116
770.4000,0.000812914
770.2000,0.000812496
770.0000,0.000811899
769.8000,0.000813391
769.6000,0.000814943
769.4000,0.000817092
769.2000,0.000816674
769.0000,0.000817808
768.8000,0.000820554
768.6000,0.000824614
768.4000,0.000825927
768.2000,0.00082724
768.0000,0.000827479
767.8000,0.000827897
767.6000,0.000828792
767.4000,0.00083309
767.2000,0.000835896
767.0000,0.000841388
766.8000,0.000843537
766.6000,0.000845745
766.4000,0.000839597
766.2000,0.000836314
766.0000,0.000830046
765.8000,0.000825867
765.6000,0.000818346
765.4000,0.000813033
765.2000,0.000810765
765.0000,0.000808257
764.8000,0.000803661
764.6000,0.000799005
764.4000,0.00079411
764.2000,0.000789514
764.0000,0.000784499
763.8000,0.000778351
763.6000,0.000771486
763.4000,0.000767904
763.2000,0.000771725
763.0000,0.000765815
762.8000,0.000765457
762.6000,0.000765517
762.4000,0.00076492
762.2000,0.000764741
762.0000,0.000767964
761.8000,0.000766949
761.6000,0.00077274
761.4000,0.000767248
761.2000,0.000763666
761.0000,0.00075698
760.8000,0.000759368
760.6000,0.000758114
760.4000,0.000755906
760.2000,0.000752324
760.0000,0.000750474
759.8000,0.000752623
759.6000,0.00075119
759.4000,0.000746176
759.2000,0.0007454
759.0000,0.000744206
758.8000,0.000738893
758.6000,0.000739609
758.4000,0.000735908
758.2000,0.000736147
758.0000,0.000739788
757.8000,0.000748086
757.6000,0.000744027
757.4000,0.000740027
757.2000,0.000739609
757.0000,0.000740027
756.8000,0.000737102
756.6000,0.000733103
756.4000,0.000731909
756.2000,0.000727312
756.0000,0.000725462
755.8000,0.000722537
755.6000,0.000720089
755.4000,0.000715672
755.2000,0.000711493
755.0000,0.000710658
754.8000,0.000705882
754.6000,0.000695973
754.4000,0.000689466
754.2000,0.000685526
754.0000,0.000682601
753.8000,0.00067502
753.6000,0.000671081
753.4000,0.000674961
753.2000,0.00067311
753.0000,0.000675916
752.8000,0.000674901
752.6000,0.000669708
752.4000,0.000665529
752.2000,0.000663261
752.0000,0.000661112
751.8000,0.000660873
751.6000,0.000658127
751.4000,0.000655142
751.2000,0.000656635
751.0000,0.000659858
750.8000,0.000660873
750.6000,0.000661947
750.4000,0.000660813
750.2000,0.000653232
750.0000,0.00065371
749.8000,0.000654486
749.6000,0.000650068
749.4000,0.000652277
749.2000,0.000655799
749.0000,0.000658008
748.8000,0.000659858
748.6000,0.00065956
748.4000,0.000663619
748.2000,0.000664992
748.0000,0.000664514
747.8000,0.000664932
747.6000,0.000661768
747.4000,0.000659739
747.2000,0.000656933
747.0000,0.000657709
746.8000,0.000655023
746.6000,0.000650725
746.4000,0.000652754
746.2000,0.000647442
746.0000,0.000642069
745.8000,0.000637712
745.6000,0.000632458
745.4000,0.00062625
745.2000,0.000621773
745.0000,0.0006204
744.8000,0.000615923
744.6000,0.000610133
744.4000,0.00060882
744.2000,0.000608163
744.0000,0.000610551
743.8000,0.000613177
743.6000,0.00061455
743.4000,0.000613237
743.2000,0.000615386
743.0000,0.00061646
742.8000,0.00061646
742.6000,0.000616759
742.4000,0.00061658
742.2000,0.00061849
742.0000,0.000616998
741.8000,0.00061664
741.6000,0.000618311
741.4000,0.00061664
741.2000,0.000617177
741.0000,0.000615505
740.8000,0.000611207
740.6000,0.000605536
740.4000,0.000603626
740.2000,0.000603268
740.0000,0.000433976
739.8000,0.000443467
739.6000,0.00045063
739.4000,0.000461316
739.2000,0.000471702
739.0000,0.000485492
738.8000,0.000494207
738.6000,0.000507758
738.4000,0.000511459
738.2000,0.00052089
738.0000,0.000531874
737.8000,0.000531277
737.6000,0.000532113
737.4000,0.000523457
737.2000,0.00051892
737.0000,0.000515339
736.8000,0.000513429
736.6000,0.000507698
736.4000,0.000503221
736.2000,0.00049952
736.0000,0.000492894
735.8000,0.000483402
735.6000,0.00047803
735.4000,0.000469255
735.2000,0.000465614
735.0000,0.000457555
734.8000,0.000451168
734.6000,0.000443825
734.4000,0.000436364
734.2000,0.000427409
734.0000,0.000419112
733.8000,0.000408486
733.6000,0.000398458
733.4000,0.000384848
733.2000,0.000377326
733.0000,0.000364074
732.8000,0.000354344
732.6000,0.000345091
732.4000,0.000334525
732.2000,0.000331839
732.0000,0.000328019
731.8000,0.000327183
731.6000,0.000323005
731.4000,0.000326109
731.2000,0.000334227
731.0000,0.000348792
730.8000,0.000364372
730.6000,0.000385086
730.4000,0.000406099
730.2000,0.000435886
730.0000,0.000465733
729.8000,0.000497072
729.6000,0.000535396
729.4000,0.000573003
729.2000,0.000613237
729.0000,0.000647442
728.8000,0.000681706
728.6000,0.000704927
728.4000,0.000738654
728.2000,0.000756622
728.0000,0.000770889
727.8000,0.000781753
727.6000,0.000788379
727.4000,0.000787185
727.2000,0.000790409
727.0000,0.000794408
726.8000,0.000794826
726.6000,0.000793931
726.4000,0.000795125
726.2000,0.000789693
726.0000,0.00078038
725.8000,0.000770471
725.6000,0.000759607
725.4000,0.000753339
725.2000,0.000736863
725.0000,0.000734476
724.8000,0.000734117
724.6000,0.000732028
724.4000,0.000735968
724.2000,0.000738236
724.0000,0.000738475
723.8000,0.00073567
723.6000,0.0007297
723.4000,0.000722417
723.2000,0.000711314
723.0000,0.000704927
722.8000,0.000704748
722.6000,0.000699495
722.4000,0.000696212
722.2000,0.000692869
722.0000,0.000694421
721.8000,0.000686661
721.6000,0.000675856
721.4000,0.000666783
721.2000,0.000656157
721.0000,0.000652635
720.8000,0.000645472
720.6000,0.000638189
720.4000,0.000633235
720.2000,0.000634488
720.0000,0.000632458
719.8000,0.000633414
719.6000,0.000628101
719.4000,0.000625713
719.2000,0.000623325
719.0000,0.000618609
718.8000,0.000613715
718.6000,0.000613894
718.4000,0.000614849
718.2000,0.00061455
718.0000,0.000613834
717.8000,0.000609417
717.6000,0.000611506
717.4000,0.000610551
717.2000,0.000612461
717.0000,0.000609775
716.8000,0.000606193
716.6000,0.000599149
716.4000,0.000598672
716.2000,0.000597717
716.0000,0.000597896
715.8000,0.000603328
715.6000,0.00060285
715.4000,0.000604164
715.2000,0.000602432
715.0000,0.000601537
714.8000,0.000600462
714.6000,0.000599806
714.4000,0.000595448
714.2000,0.000595687
714.0000,0.000594792
713.8000,0.000592822
713.6000,0.000591508
713.4000,0.000596105
713.2000,0.000595687
713.0000,0.000597836
712.8000,0.000596105
712.6000,0.000590852
712.4000,0.000590016
712.2000,0.000586912
712.0000,0.000587389
711.8000,0.000587569
711.6000,0.000587807
711.4000,0.000586673
711.2000,0.000587986
711.0000,0.000586196
710.8000,0.000584047
710.6000,0.000584703
710.4000,0.00058727
710.2000,0.000588106
710.0000,0.000585061
709.8000,0.000585718
709.6000,0.000586554
709.4000,0.000587867
709.2000,0.000588106
709.0000,0.000585897
708.8000,0.000587867
708.6000,0.000585718
708.4000,0.000582196
708.2000,0.000584644
708.0000,0.000583927
707.8000,0.000583808
707.6000,0.000583927
707.4000,0.00057939
707.2000,0.000579868
707.0000,0.000573123
706.8000,0.000567034
706.6000,0.000561721
706.4000,0.000559811
706.2000,0.000555871
706.0000,0.000556587
705.8000,0.000558498
705.6000,0.000556349
705.4000,0.000558139
705.2000,0.000559214
705.0000,0.000558318
704.8000,0.000558736
704.6000,0.000558557
704.4000,0.000556766
704.2000,0.000557662
704.0000,0.000552051
703.8000,0.000548708
703.6000,0.000548708
703.4000,0.000545902
703.2000,0.000538739
703.0000,0.00053259
702.8000,0.000527158
702.6000,0.000524532
702.4000,0.00051904
702.2000,0.000514443
702.0000,0.000513608
701.8000,0.000508116
701.6000,0.000506206
701.4000,0.000505071
701.2000,0.000502684
701.0000,0.000500236
700.8000,0.000501549
700.6000,0.000504474
700.4000,0.000507101
700.2000,0.000507877
700.0000,0.00051516
699.8000,0.000521487
699.6000,0.000523636
699.4000,0.000523218
699.2000,0.000524054
699.0000,0.000519875
698.8000,0.000515577
698.6000,0.000511638
698.4000,0.000502922
698.2000,0.000502266
698.0000,0.00049958
697.8000,0.000503579
697.6000,0.000506385
697.4000,0.000503997
697.2000,0.000507937
697.0000,0.000507937
696.8000,0.000504534
696.6000,0.000501251
696.4000,0.00049755
696.2000,0.000494744
696.0000,0.000496953
695.8000,0.000495461
695.6000,0.000496774
695.4000,0.000500952
695.2000,0.000504295
695.0000,0.000498863
694.8000,0.000498207
694.6000,0.000492536
694.4000,0.00048579
694.2000,0.000483641
694.0000,0.000477791
693.8000,0.000477135
693.6000,0.000474747
693.4000,0.000472837
693.2000,0.000469374
693.0000,0.000467703
692.8000,0.000461137
692.6000,0.000463763
692.4000,0.000461196
692.2000,0.000457734
692.0000,0.000456421
691.8000,0.000453615
691.6000,0.000451227
691.4000,0.000450571
691.2000,0.000447526
691.0000,0.000448064
690.8000,0.000446571
690.6000,0.000442393
690.4000,0.000438513
690.2000,0.000434573
690.0000,0.000435886
689.8000,0.000435886
689.6000,0.000439169
689.4000,0.000435229
689.2000,0.00043505
689.0000,0.000437438
688.8000,0.000435229
688.6000,0.000438274
688.4000,0.000443945
688.2000,0.000443527
688.0000,0.000448541
687.8000,0.00044878
687.6000,0.000445079
687.4000,0.000447228
687.2000,0.000453376
687.0000,0.00046233
686.8000,0.000463703
686.6000,0.000466091
686.4000,0.000463047
686.2000,0.000465375
686.0000,0.000464539
685.8000,0.000457973
685.6000,0.000456898
685.4000,0.000456003
685.2000,0.000458212
685.0000,0.000457615
684.8000,0.000455704
684.6000,0.000455048
684.4000,0.000457913
684.2000,0.000457973
684.0000,0.000460181
683.8000,0.000454331
683.6000,0.000455048
683.4000,0.000448959
683.2000,0.000448541
683.0000,0.000446332
682.8000,0.000447288
682.6000,0.000452541
682.4000,0.000454749
682.2000,0.000455883
682.0000,0.00045069
681.8000,0.000452003
681.6000,0.000453138
681.4000,0.000450153
681.2000,0.000448601
681.0000,0.000444064
680.8000,0.000439289
680.6000,0.000441497
680.4000,0.000439766
680.2000,0.000440482
680.0000,0.000441736
679.8000,0.000449675
679.6000,0.000450392
679.4000,0.000452182
679.2000,0.000452839
679.0000,0.000453734
678.8000,0.000452839
678.6000,0.0004526
678.4000,0.00044884
678.2000,0.000450809
678.0000,0.00045457
677.8000,0.000454749
677.6000,0.000456779
677.4000,0.000453078
677.2000,0.000451526
677.0000,0.000449735
676.8000,0.000445974
676.6000,0.000437736
676.4000,0.000430036
676.2000,0.000422515
676.0000,0.000421201
675.8000,0.000417739
675.6000,0.000415351
675.4000,0.000412725
675.2000,0.00041362
675.0000,0.000412725
674.8000,0.000412008
674.6000,0.000416844
674.4000,0.000416426
674.2000,0.000421261
674.0000,0.000423649
673.8000,0.000426932
673.6000,0.000430275
673.4000,0.000433797
673.2000,0.000441557
673.0000,0.000445974
672.8000,0.000451466
672.6000,0.000452362
672.4000,0.000457256
672.2000,0.000457734
672.0000,0.00045648
671.8000,0.000460898
671.6000,0.00045851
671.4000,0.000450869
671.2000,0.000445437
671.0000,0.000439289
670.8000,0.000434752
670.6000,0.000430872
670.4000,0.000430633
670.2000,0.000428066
670.0000,0.000425499
669.8000,0.00042335
669.6000,0.000419649
669.4000,0.000420545
669.2000,0.00041553
669.0000,0.000414038
668.8000,0.000414217
668.6000,0.000412426
668.4000,0.000413083
668.2000,0.000417082
668.0000,0.000416008
667.8000,0.000418634
667.6000,0.000420366
667.4000,0.000420127
667.2000,0.000418575
667.0000,0.000416844
666.8000,0.000411352
666.6000,0.00040586
666.4000,0.00040192
666.2000,0.000398816
666.0000,0.000394936
665.8000,0.000395951
665.6000,0.00039422
665.4000,0.00038831
665.2000,0.000382639
665.0000,0.000377983
664.8000,0.000377326
664.6000,0.000372073
664.4000,0.000368551
664.2000,0.00036676
664.0000,0.000360851
663.8000,0.000359537
663.6000,0.000359955
663.4000,0.000363238
663.2000,0.000364134
663.0000,0.000358702
662.8000,0.000359955
662.6000,0.000355896
662.4000,0.000357866
662.2000,0.000353508
662.0000,0.000351538
661.8000,0.000348733
661.6000,0.000345688
661.4000,0.000342047
661.2000,0.000339122
661.0000,0.000335242
660.8000,0.000332436
660.6000,0.000327601
660.4000,0.000320856
660.2000,0.000312737
660.0000,0.000303962
659.8000,0.000303126
659.6000,0.000298769
659.4000,0.000293993
659.2000,0.000290471
659.0000,0.000291188
658.8000,0.000287188
658.6000,0.0002848
658.4000,0.000284562
658.2000,0.000285218
658.0000,0.000281935
657.8000,0.0002848
657.6000,0.000287666
657.4000,0.000292919
657.2000,0.000299963
657.0000,0.000303246
656.8000,0.000305275
656.6000,0.00030832
656.4000,0.000311603
656.2000,0.000315782
656.0000,0.000313633
655.8000,0.000311603
655.6000,0.000311185
655.4000,0.000310708
655.2000,0.000307245
655.0000,0.00030635
654.8000,0.000307484
654.6000,0.000306171
654.4000,0.000306171
654.2000,0.000303485
654.0000,0.000298828
653.8000,0.000299127
653.6000,0.000301037
653.4000,0.000297515
653.2000,0.000297097
653.0000,0.000301097
652.8000,0.000301037
652.6000,0.000303067
652.4000,0.000305514
652.2000,0.000305932
652.0000,0.000308141
651.8000,0.000306947
651.6000,0.000304499
651.4000,0.00030038
651.2000,0.000296381
651.0000,0.000288322
650.8000,0.000288143
650.6000,0.000283547
650.4000,0.000280502
650.2000,0.000274831
650.0000,0.000269578
649.8000,0.000256625
649.6000,0.000249402
649.4000,0.00024588
649.2000,0.000243253
649.0000,0.000241283
648.8000,0.000242597
648.6000,0.000242835
648.4000,0.000242597
648.2000,0.000246536
648.0000,0.000247909
647.8000,0.000248148
647.6000,0.000248088
647.4000,0.000245641
647.2000,0.000246596
647.0000,0.000250954
646.8000,0.000250536
646.6000,0.00025561
646.4000,0.000260206
646.2000,0.000260206
646.0000,0.000262236
645.8000,0.000263072
645.6000,0.000261102
645.4000,0.000260206
645.2000,0.000260684
645.0000,0.000258714
644.8000,0.000257998
644.6000,0.00025561
644.4000,0.000250536
644.2000,0.000252088
644.0000,0.000250297
643.8000,0.000247671
643.6000,0.000247432
643.4000,0.000244805
643.2000,0.00024385
643.0000,0.000243014
642.8000,0.000241701
642.6000,0.000239672
642.4000,0.000233344
642.2000,0.000231135
642.0000,0.000227673
641.8000,0.000225703
641.6000,0.000226002
641.4000,0.000231971
641.2000,0.000234896
641.0000,0.000233583
640.8000,0.000233702
640.6000,0.000233941
640.4000,0.000234836
640.2000,0.000238
640.0000,0.000239313
639.8000,0.000238657
639.6000,0.000237164
639.4000,0.000238896
639.2000,0.00024397
639.0000,0.000248387
638.8000,0.000255252
638.6000,0.000258117
638.4000,0.000259669
638.2000,0.000256804
638.0000,0.000262117
637.8000,0.000266116
637.6000,0.000267668
637.4000,0.000272265
637.2000,0.000274473
637.0000,0.000273757
636.8000,0.000277339
636.6000,0.00028092
636.4000,0.000284681
636.2000,0.000282233
636.0000,0.000281099
635.8000,0.000281099
635.6000,0.000276861
635.4000,0.000275787
635.2000,0.000274473
635.0000,0.000278891
634.8000,0.000276921
634.6000,0.000277398
634.4000,0.000277756
634.2000,0.000275607
634.0000,0.000273399
633.8000,0.000270951
633.6000,0.000263669
633.4000,0.000259908
633.2000,0.000255729
633.0000,0.000255311
632.8000,0.000254297
632.6000,0.000254118
632.4000,0.000253461
632.2000,0.000250834
632.0000,0.000249581
631.8000,0.000246954
631.6000,0.000245701
631.4000,0.000245283
631.2000,0.000244865
631.0000,0.000243194
630.8000,0.000244507
630.6000,0.000247372
630.4000,0.000251372
630.2000,0.00025358
630.0000,0.000254476
629.8000,0.000257102
629.6000,0.000255311
629.4000,0.000254416
629.2000,0.00025561
629.0000,0.000260445
628.8000,0.000265758
628.6000,0.000267967
628.4000,0.000272384
628.2000,0.000276383
628.0000,0.000278771
627.8000,0.000281696
627.6000,0.000284144
627.4000,0.000287427
627.2000,0.000289456
627.0000,0.000290829
626.8000,0.000295247
626.6000,0.000297217
626.4000,0.000302052
626.2000,0.000303843
626.0000,0.000303843
625.8000,0.000301634
625.6000,0.000296321
625.4000,0.00029656
625.2000,0.000293217
625.0000,0.000291009
624.8000,0.000292143
624.6000,0.000295545
624.4000,0.000294053
624.2000,0.000292561
624.0000,0.000290591
623.8000,0.000289098
623.6000,0.000287546
623.4000,0.000289397
623.2000,0.000287845
623.0000,0.000287904
622.8000,0.000293934
622.6000,0.000297754
622.4000,0.000299784
622.2000,0.000300022
622.0000,0.000301992
621.8000,0.000305813
621.6000,0.000307544
621.4000,0.000308021
621.2000,0.000309096
621.0000,0.000311125
620.8000,0.000312021
620.6000,0.000314468
620.4000,0.000316916
620.2000,0.000318408
620.0000,0.000321572
619.8000,0.000325989
619.6000,0.000327541
619.4000,0.000330227
619.2000,0.000334227
619.0000,0.000335958
618.8000,0.000340435
618.6000,0.000338644
618.4000,0.000338226
618.2000,0.000336674
618.0000,0.000338883
617.8000,0.000340614
617.6000,0.000347061
617.4000,0.000352374
617.2000,0.000351479
617.0000,0.000354583
616.8000,0.000359478
616.6000,0.000362224
616.4000,0.000362761
616.2000,0.000364313
616.0000,0.000366342
615.8000,0.000368193
615.6000,0.000369387
615.4000,0.000371416
615.2000,0.000372133
615.0000,0.000373506
614.8000,0.000375834
614.6000,0.000374938
614.4000,0.000373207
614.2000,0.000371237
614.0000,0.000378639
613.8000,0.000375595
613.6000,0.000376252
613.4000,0.000376073
613.2000,0.00037649
613.0000,0.000376252
612.8000,0.00037649
612.6000,0.000377565
612.4000,0.000375356
612.2000,0.000378281
612.0000,0.000382281
611.8000,0.000384251
611.6000,0.000385385
611.4000,0.000387593
611.2000,0.000389563
611.0000,0.000392488
610.8000,0.000389862
610.6000,0.000389146
610.4000,0.000386937
610.2000,0.000384489
610.0000,0.000383833
609.8000,0.000382937
609.6000,0.000385385
609.4000,0.000389384
609.2000,0.000393384
609.0000,0.000394279
608.8000,0.000396727
608.6000,0.000400368
608.4000,0.000402159
608.2000,0.000404905
608.0000,0.000405323
607.8000,0.000403651
607.6000,0.000403174
607.4000,0.000407651
607.2000,0.000410397
607.0000,0.000412187
606.8000,0.000416664
606.6000,0.000423231
606.4000,0.000426812
606.2000,0.000424186
606.0000,0.000424246
605.8000,0.00042538
605.6000,0.00042144
605.4000,0.000424783
605.2000,0.000427768
605.0000,0.000430215
604.8000,0.000433856
604.6000,0.00043702
604.4000,0.000440124
604.2000,0.000444601
604.0000,0.000445915
603.8000,0.000450153
603.6000,0.000451944
603.4000,0.000451287
603.2000,0.000449257
603.0000,0.0004526
602.8000,0.000450571
602.6000,0.000452123
602.4000,0.000453734
602.2000,0.000451944
602.0000,0.00044884
601.8000,0.000451048
601.6000,0.000454391
601.4000,0.000461077
601.2000,0.000469315
601.0000,0.000471105
600.8000,0.000472896
600.6000,0.000475165
600.4000,0.000476
600.2000,0.000480477
600.0000,0.00048388
599.8000,0.000485432
599.6000,0.000492715
599.4000,0.000495879
599.2000,0.00050149
599.0000,0.000508235
598.8000,0.000510742
598.6000,0.000509489
598.4000,0.000508593
598.2000,0.000507758
598.0000,0.000506683
597.8000,0.000504534
597.6000,0.000506385
597.4000,0.000504176
597.2000,0.000508235
597.0000,0.000508474
596.8000,0.000507877
596.6000,0.000510384
596.4000,0.000514443
596.2000,0.000515398
596.0000,0.000518085
595.8000,0.000516771
595.6000,0.000527278
595.4000,0.000531277
595.2000,0.000537306
595.0000,0.000540888
594.8000,0.000543992
594.6000,0.000551394
594.4000,0.000557602
594.2000,0.00056393
594.0000,0.00056393
593.8000,0.000568347
593.6000,0.000570854
593.4000,0.000577301
593.2000,0.000579749
593.0000,0.00058339
592.8000,0.000586554
592.6000,0.000589001
592.4000,0.000587986
592.2000,0.000595806
592.0000,0.000597
591.8000,0.000601358
591.6000,0.000605596
591.4000,0.000609237
591.2000,0.000612401
591.0000,0.000621893
590.8000,0.000627981
590.6000,0.000630727
590.4000,0.000639025
590.2000,0.000640637
590.0000,0.000646248
589.8000,0.000648277
589.6000,0.000652635
589.4000,0.000658246
589.2000,0.000661649
589.0000,0.000662425
588.8000,0.000667379
588.6000,0.000672573
588.4000,0.000672394
588.2000,0.000678721
588.0000,0.000685885
587.8000,0.00068475
587.6000,0.000691914
587.4000,0.000699137
587.2000,0.000701286
587.0000,0.000705584
586.8000,0.000707375
586.6000,0.000716746
586.4000,0.00072576
586.2000,0.000734476
586.0000,0.00074528
585.8000,0.000755249
585.6000,0.00076086
585.4000,0.000760681
585.2000,0.000768143
585.0000,0.000769814
584.8000,0.000772919
584.6000,0.000780679
584.4000,0.000787424
584.2000,0.000796199
584.0000,0.000803183
583.8000,0.000811541
583.6000,0.000822106
583.4000,0.000822405
583.2000,0.000821569
583.0000,0.000826763
582.8000,0.00083112
582.6000,0.000831419
582.4000,0.000838164
582.2000,0.000847178
582.0000,0.000858162
581.8000,0.000867653
581.6000,0.000878219
581.4000,0.00088771
581.2000,0.000897619
581.0000,0.000899888
580.8000,0.000911886
580.6000,0.000921796
580.4000,0.00092878
580.2000,0.000938928
580.0000,0.00095206
579.8000,0.000962626
579.6000,0.000969909
579.4000,0.000986564
579.2000,0.000994503
579.0000,0.0010105
578.8000,0.0010222
578.6000,0.00103127
578.4000,0.00103802
578.2000,0.00104751
578.0000,0.00105026
577.8000,0.00105867
577.6000,0.00106321
577.4000,0.00106864
577.2000,0.00107724
577.0000,0.0010933
576.8000,0.00109939
576.6000,0.00110368
576.4000,0.00111204
576.2000,0.00111956
576.0000,0.00113216
575.8000,0.00114392
575.6000,0.0011512
575.4000,0.00116135
575.2000,0.0011749
575.0000,0.00118278
574.8000,0.00119388
574.6000,0.00120182
574.4000,0.00121609
574.2000,0.00122683
574.0000,0.00123996
573.8000,0.00124844
573.6000,0.00126205
573.4000,0.00127703
573.2000,0.00128814
573.0000,0.00129769
572.8000,0.00130617
572.6000,0.00131548
572.4000,0.00132658
572.2000,0.0013384
572.0000,0.001347
571.8000,0.00136347
571.6000,0.00138066
571.4000,0.00139983
571.2000,0.00141135
571.0000,0.001428
570.8000,0.00143916
570.6000,0.00145289
570.4000,0.00146579
570.2000,0.00147868
570.0000,0.00149695
569.8000,0.0015099
569.6000,0.00152727
569.4000,0.00153754
569.2000,0.00155372
569.0000,0.00157097
568.8000,0.00159001
568.6000,0.00160117
568.4000,0.00161192
568.2000,0.00162374
568.0000,0.00164368
567.8000,0.0016589
567.6000,0.00167096
567.4000,0.00168463
567.2000,0.00170212
567.0000,0.00171644
566.8000,0.00172916
566.6000,0.00174354
566.4000,0.00176014
566.2000,0.00177536
566.0000,0.00178831
565.8000,0.00180491
565.6000,0.0018181
565.4000,0.00183786
565.2000,0.00185398
565.0000,0.00187242
564.8000,0.00188454
564.6000,0.00189958
564.4000,0.00191988
564.2000,0.00194119
564.0000,0.00195623
563.8000,0.00197175
563.6000,0.00198996
563.4000,0.00200859
563.2000,0.00202321
563.0000,0.00204094
562.8000,0.00206297
562.6000,0.00207891
562.4000,0.00209419
562.2000,0.00210947
562.0000,0.0021297
561.8000,0.00214749
561.6000,0.00216815
561.4000,0.00219065
561.2000,0.00221566
561.0000,0.00224223
560.8000,0.00227112
560.6000,0.00229536
560.4000,0.00232067
560.2000,0.00234663
560.0000,0.0023729
559.8000,0.00239952
559.6000,0.00241928
559.4000,0.00244525
559.2000,0.00247641
559.0000,0.00250375
558.8000,0.00252906
558.6000,0.00255885
558.4000,0.00258529
558.2000,0.00260953
558.0000,0.00263072
557.8000,0.0026497
557.6000,0.00267232
557.4000,0.00270116
557.2000,0.00272802
557.0000,0.00275452
556.8000,0.002779
556.6000,0.0028089
556.4000,0.00283875
556.2000,0.00286621
556.0000,0.00289504
555.8000,0.00292584
555.6000,0.00295987
555.4000,0.00298816
555.2000,0.00301855
555.0000,0.00305138
554.8000,0.00308385
554.6000,0.00311466
554.4000,0.00314594
554.2000,0.00317477
554.0000,0.00320515
553.8000,0.00323446
553.6000,0.00326926
553.4000,0.00329953
553.2000,0.00333206
553.0000,0.003368
552.8000,0.00340441
552.6000,0.00344082
552.4000,0.0034736
552.2000,0.00350959
552.0000,0.0035435
551.8000,0.00358123
551.6000,0.00361812
551.4000,0.00365859
551.2000,0.00369369
551.0000,0.00373667
550.8000,0.00377923
550.6000,0.00382561
550.4000,0.00386734
550.2000,0.00390889
550.0000,0.00395198
549.8000,0.00399013
549.6000,0.00402815
549.4000,0.00406576
549.2000,0.004106
549.0000,0.00415184
548.8000,0.00420061
548.6000,0.00424323
548.4000,0.00428365
548.2000,0.00432066
548.0000,0.0043631
547.8000,0.00440363
547.6000,0.00444571
547.4000,0.00448535
547.2000,0.00452881
547.0000,0.00457161
546.8000,0.00461919
546.6000,0.00466455
546.4000,0.00470759
546.2000,0.00475857
546.0000,0.00480758
545.8000,0.0048536
545.6000,0.00489951
545.4000,0.00494697
545.2000,0.00499771
545.0000,0.00505042
544.8000,0.00510211
544.6000,0.00515309
544.4000,0.00521093
544.2000,0.00526233
544.0000,0.00531516
543.8000,0.00537032
543.6000,0.00541903
543.4000,0.00547478
543.2000,0.00553418
543.0000,0.00558426
542.8000,0.00563995
542.6000,0.0056972
542.4000,0.00574967
542.2000,0.00580769
542.0000,0.00586751
541.8000,0.00592977
541.6000,0.00599352
541.4000,0.00605698
541.2000,0.00611082
541.0000,0.00617207
540.8000,0.00623463
540.6000,0.00629611
540.4000,0.00636798
540.2000,0.00643735
540.0000,0.0065048
539.8000,0.00657506
539.6000,0.00664383
539.4000,0.00671003
539.2000,0.00678423
539.0000,0.00685616
538.8000,0.00692791
538.6000,0.0069962
538.4000,0.00706461
538.2000,0.00713225
538.0000,0.00720555
537.8000,0.00727933
537.6000,0.00734488
537.4000,0.00741949
537.2000,0.00748551
537.0000,0.00755774
536.8000,0.0076286
536.6000,0.00770226
536.4000,0.00777581
536.2000,0.00784845
536.0000,0.00792289
535.8000,0.00799858
535.6000,0.00807326
535.4000,0.00815277
535.2000,0.00823456
535.0000,0.00831538
534.8000,0.00839907
534.6000,0.00848646
534.4000,0.00858054
534.2000,0.00866495
534.0000,0.00875694
533.8000,0.00884773
533.6000,0.00894247
533.4000,0.00903595
533.2000,0.00912734
533.0000,0.00922578
532.8000,0.00932027
532.6000,0.00941489
532.4000,0.00951237
532.2000,0.00960812
532.0000,0.00970363
531.8000,0.00980433
531.6000,0.00990491
531.4000,0.0100002
531.2000,0.0100998
531.0000,0.0102082
530.8000,0.0103074
530.6000,0.0104039
530.4000,0.0105004
530.2000,0.0106017
530.0000,0.0107085
529.8000,0.0108115
529.6000,0.0109171
529.4000,0.0110232
529.2000,0.0111394
529.0000,0.0112513
528.8000,0.011363
528.6000,0.0114729
528.4000,0.01158
528.2000,0.0116984
528.0000,0.011809
527.8000,0.0119213
527.6000,0.0120375
527.4000,0.0121602
527.2000,0.0122781
527.0000,0.0123971
526.8000,0.0125169
526.6000,0.0126431
526.4000,0.012765
526.2000,0.0128874
526.0000,0.0130013
525.8000,0.013128
525.6000,0.0132565
525.4000,0.0133862
525.2000,0.0135168
525.0000,0.013645
524.8000,0.0137831
524.6000,0.0139125
524.4000,0.0140498
524.2000,0.0141819
524.0000,0.01432
523.8000,0.0144554
523.6000,0.0145942
523.4000,0.014729
523.2000,0.0148727
523.0000,0.0150137
522.8000,0.0151576
522.6000,0.0152985
522.4000,0.0154392
522.2000,0.0155901
522.0000,0.0157423
521.8000,0.0158944
521.6000,0.0160389
521.4000,0.0161926
521.2000,0.0163425
521.0000,0.0164938
520.8000,0.016654
520.6000,0.0168146
520.4000,0.0169755
520.2000,0.0171439
520.0000,0.0173063
519.8000,0.0174718
519.6000,0.0176376
519.4000,0.0178083
519.2000,0.0179846
519.0000,0.0181514
518.8000,0.0183205
518.6000,0.0184899
518.4000,0.0186683
518.2000,0.0188449
518.0000,0.0190245
517.8000,0.0192117
517.6000,0.0193865
517.4000,0.0195677
517.2000,0.0197399
517.0000,0.01991
516.8000,0.0200898
516.6000,0.0202748
516.4000,0.0204662
516.2000,0.0206516
516.0000,0.0208364
515.8000,0.021026
515.6000,0.0212129
515.4000,0.0214038
515.2000,0.0215985
515.0000,0.0217905
514.8000,0.0219906
514.6000,0.022184
514.4000,0.0223854
514.2000,0.022587
514.0000,0.0227984
513.8000,0.0230116
513.6000,0.0232231
513.4000,0.0234345
513.2000,0.0236431
513.0000,0.0238592
512.8000,0.024079
512.6000,0.024298
512.4000,0.0245247
512.2000,0.0247482
512.0000,0.0249715
511.8000,0.0251985
511.6000,0.0254178
511.4000,0.0256458
511.2000,0.0258749
511.0000,0.0261051
510.8000,0.0263405
510.6000,0.0265736
510.4000,0.0268076
510.2000,0.0270424
510.0000,0.0272839
509.8000,0.0275162
509.6000,0.0277508
509.4000,0.0279869
509.2000,0.0282222
509.0000,0.0284663
508.8000,0.02871
508.6000,0.0289573
508.4000,0.0292072
508.2000,0.0294562
508.0000,0.0297098
507.8000,0.029968
507.6000,0.0302252
507.4000,0.0304853
507.2000,0.0307491
507.0000,0.0310141
506.8000,0.0312774
506.6000,0.0315507
506.4000,0.0318239
506.2000,0.0320968
506.0000,0.0323718
505.8000,0.032643
505.6000,0.032923
505.4000,0.0332036
505.2000,0.0334902
505.0000,0.0337769
504.8000,0.0340607
504.6000,0.0343404
504.4000,0.0346251
504.2000,0.0349109
504.0000,0.035195
503.8000,0.0354856
503.6000,0.0357829
503.4000,0.0360757
503.2000,0.0363718
503.0000,0.0366739
502.8000,0.0369743
502.6000,0.0372786
502.4000,0.03758
502.2000,0.0378872
502.0000,0.0381905
501.8000,0.0385039
501.6000,0.038813
501.4000,0.0391286
501.2000,0.0394456
501.0000,0.0397687
500.8000,0.0400957
500.6000,0.0404182
500.4000,0.0407377
500.2000,0.0410636
500.0000,0.0416364
499.8000,0.0419594
499.6000,0.0422932
499.4000,0.0426263
499.2000,0.0429645
499.0000,0.0433042
498.8000,0.0436457
498.6000,0.0439823
498.4000,0.0443261
498.2000,0.044675
498.0000,0.0450232
497.8000,0.0453715
497.6000,0.0457217
497.4000,0.0460744
497.2000,0.0464294
497.0000,0.0467806
496.8000,0.0471347
496.6000,0.0474987
496.4000,0.0478525
496.2000,0.0482192
496.0000,0.0485827
495.8000,0.048939
495.6000,0.0493073
495.4000,0.0496811
495.2000,0.0500456
495.0000,0.0504215
494.8000,0.0507925
494.6000,0.0511746
494.4000,0.0515584
494.2000,0.0519405
494.0000,0.0523182
493.8000,0.052701
493.6000,0.0530936
493.4000,0.0534753
493.2000,0.0538701
493.0000,0.0542628
492.8000,0.0546667
492.6000,0.0550661
492.4000,0.0554642
492.2000,0.0558594
492.0000,0.0562792
491.8000,0.0566825
491.6000,0.0570925
491.4000,0.0574976
491.2000,0.057908
491.0000,0.0583161
490.8000,0.0587255
490.6000,0.0591382
490.4000,0.0595492
490.2000,0.0599745
490.0000,0.0603964
489.8000,0.0608166
489.6000,0.0612355
489.4000,0.06167
489.2000,0.0620936
489.0000,0.0625215
488.8000,0.0629436
488.6000,0.0633782
488.4000,0.063814
488.2000,0.0642501
488.0000,0.0646778
487.8000,0.0651214
487.6000,0.0655708
487.4000,0.0660191
487.2000,0.0664663
487.0000,0.0669078
486.8000,0.0673548
486.6000,0.0678044
486.4000,0.0682531
486.2000,0.0686896
486.0000,0.0691487
485.8000,0.0696107
485.6000,0.0700606
485.4000,0.0705217
485.2000,0.0709826
485.0000,0.0714417
484.8000,0.0719055
484.6000,0.0723594
484.4000,0.072813
484.2000,0.0732676
484.0000,0.0737288
483.8000,0.0741962
483.6000,0.0746621
483.4000,0.0751262
483.2000,0.0755958
483.0000,0.0760748
482.8000,0.0765454
482.6000,0.0770086
482.4000,0.0774818
482.2000,0.077952
482.0000,0.0784225
481.8000,0.0788967
481.6000,0.0793758
481.4000,0.0798616
481.2000,0.0803392
481.0000,0.0808305
480.8000,0.0813056
480.6000,0.0817816
480.4000,0.0822598
480.2000,0.0827416
480.0000,0.0832191
479.8000,0.0836995
479.6000,0.0841748
479.4000,0.0846609
479.2000,0.0851457
479.0000,0.0856272
478.8000,0.0860994
478.6000,0.0865855
478.4000,0.0870697
478.2000,0.0875488
478.0000,0.0880496
477.8000,0.0885331
477.6000,0.0890274
477.4000,0.0895265
477.2000,0.0900168
477.0000,0.090508
476.8000,0.0910055
476.6000,0.0914951
476.4000,0.0919894
476.2000,0.0924802
476.0000,0.0929676
475.8000,0.0934581
475.6000,0.093963
475.4000,0.0944552
475.2000,0.0949479
475.0000,0.0954473
474.8000,0.0959229
474.6000,0.0964116
474.4000,0.0969037
474.2000,0.0973879
474.0000,0.0978716
473.8000,0.0983563
473.6000,0.0988321
473.4000,0.099323
473.2000,0.0998171
473.0000,0.100314
472.8000,0.100812
472.6000,0.101303
472.4000,0.101793
472.2000,0.102293
472.0000,0.102776
471.8000,0.10326
471.6000,0.103771
471.4000,0.104268
471.2000,0.104766
471.0000,0.105256
470.8000,0.105752
470.6000,0.106238
470.4000,0.106735
470.2000,0.107218
470.0000,0.107693
469.8000,0.10817
469.6000,0.108647
469.4000,0.109125
469.2000,0.109602
469.0000,0.110073
468.8000,0.11055
468.6000,0.111028
468.4000,0.111487
468.2000,0.11195
468.0000,0.112411
467.8000,0.112878
467.6000,0.113336
467.4000,0.113799
467.2000,0.114254
467.0000,0.114729
466.8000,0.115201
466.6000,0.115653
466.4000,0.116108
466.2000,0.116559
466.0000,0.117007
465.8000,0.117464
465.6000,0.117916
465.4000,0.118361
465.2000,0.11881
465.0000,0.11925
464.8000,0.119694
464.6000,0.120134
464.4000,0.120575
464.2000,0.121024
464.0000,0.121462
463.8000,0.121886
463.6000,0.122304
463.4000,0.122745
463.2000,0.123174
463.0000,0.123612
462.8000,0.124036
462.6000,0.124456
462.4000,0.124877
462.2000,0.125284
462.0000,0.125692
461.8000,0.126106
461.6000,0.126514
461.4000,0.126923
461.2000,0.127324
461.0000,0.127717
460.8000,0.128111
460.6000,0.128506
460.4000,0.128897
460.2000,0.12928
460.0000,0.129665
459.8000,0.130037
459.6000,0.130415
459.4000,0.130778
459.2000,0.131148
459.0000,0.131525
458.8000,0.131892
458.6000,0.132259
458.4000,0.13261
458.2000,0.132958
458.0000,0.13332
457.8000,0.133672
457.6000,0.134015
457.4000,0.134355
457.2000,0.134688
457.0000,0.135012
456.8000,0.135334
456.6000,0.135655
456.4000,0.135978
456.2000,0.136293
456.0000,0.136608
455.8000,0.136908
455.6000,0.137207
455.4000,0.137504
455.2000,0.137801
455.0000,0.138095
454.8000,0.138374
454.6000,0.138646
454.4000,0.138922
454.2000,0.139194
454.0000,0.139476
453.8000,0.139745
453.6000,0.139997
453.4000,0.140253
453.2000,0.14049
453.0000,0.140744
452.8000,0.140984
452.6000,0.141226
452.4000,0.141455
452.2000,0.141684
452.0000,0.141914
451.8000,0.142134
451.6000,0.142338
451.4000,0.142549
451.2000,0.142754
451.0000,0.14295
450.8000,0.14313
450.6000,0.143319
450.4000,0.143503
450.2000,0.143676
450.0000,0.143845
449.8000,0.144001
449.6000,0.144167
449.4000,0.144315
449.2000,0.14447
449.0000,0.144606
448.8000,0.144736
448.6000,0.144854
448.4000,0.144987
448.2000,0.145103
448.0000,0.145224
447.8000,0.145342
447.6000,0.145454
447.4000,0.145554
447.2000,0.14566
447.0000,0.145755
446.8000,0.145851
446.6000,0.145936
446.4000,0.146
446.2000,0.146063
446.0000,0.146118
445.8000,0.146176
445.6000,0.14623
445.4000,0.14629
445.2000,0.146332
445.0000,0.146376
444.8000,0.146408
444.6000,0.146432
444.4000,0.146452
444.2000,0.146461
444.0000,0.146467
443.8000,0.146473
443.6000,0.146469
443.4000,0.146472
443.2000,0.146463
443.0000,0.146463
442.8000,0.146446
442.6000,0.146415
442.4000,0.146374
442.2000,0.14633
442.0000,0.146273
441.8000,0.146223
441.6000,0.146144
441.4000,0.146075
441.2000,0.145996
441.0000,0.145928
440.8000,0.145844
440.6000,0.145746
440.4000,0.145642
440.2000,0.145516
440.0000,0.145402
439.8000,0.145277
439.6000,0.145165
439.4000,0.14503
439.2000,0.144904
439.0000,0.144761
438.8000,0.14462
438.6000,0.144477
438.4000,0.144338
438.2000,0.144171
438.0000,0.144012
437.8000,0.14383
437.6000,0.143643
437.4000,0.143468
437.2000,0.143292
437.0000,0.143091
436.8000,0.142894
436.6000,0.142683
436.4000,0.142481
436.2000,0.142276
436.0000,0.142036
435.8000,0.141806
435.6000,0.141567
435.4000,0.141316
435.2000,0.141078
435.0000,0.140824
434.8000,0.140563
434.6000,0.140311
434.4000,0.140058
434.2000,0.13978
434.0000,0.139496
433.8000,0.139233
433.6000,0.13893
433.4000,0.138636
433.2000,0.138327
433.0000,0.13802
432.8000,0.137727
432.6000,0.137425
432.4000,0.137118
432.2000,0.136794
432.0000,0.136456
431.8000,0.136124
431.6000,0.135794
431.4000,0.135445
431.2000,0.135095
431.0000,0.134749
430.8000,0.134384
430.6000,0.134014
430.4000,0.133655
430.2000,0.133289
430.0000,0.132901
429.8000,0.132512
429.6000,0.132107
429.4000,0.1317
429.2000,0.131295
429.0000,0.130889
428.8000,0.130485
428.6000,0.130077
428.4000,0.129665
428.2000,0.129241
428.0000,0.128824
427.8000,0.1284
427.6000,0.127984
427.4000,0.12757
427.2000,0.127146
427.0000,0.126717
426.8000,0.126291
426.6000,0.12585
426.4000,0.125424
426.2000,0.124983
426.0000,0.124545
425.8000,0.124104
425.6000,0.12365
425.4000,0.123198
425.2000,0.122746
425.0000,0.122299
424.8000,0.121824
424.6000,0.12136
424.4000,0.120899
424.2000,0.120423
424.0000,0.119949
423.8000,0.119466
423.6000,0.118983
423.4000,0.118517
423.2000,0.118036
423.0000,0.117553
422.8000,0.11707
422.6000,0.116574
422.4000,0.116087
422.2000,0.115603
422.0000,0.115105
421.8000,0.11461
421.6000,0.114124
421.4000,0.113636
421.2000,0.113123
421.0000,0.11267
420.8000,0.112254
420.6000,0.111862
420.4000,0.111451
420.2000,0.111019
420.0000,0.110595
419.8000,0.110188
419.6000,0.109772
419.4000,0.109393
419.2000,0.108999
419.0000,0.108605
418.8000,0.108207
418.6000,0.107815
418.4000,0.107349
418.2000,0.106831
418.0000,0.106293
417.8000,0.105688
417.6000,0.105039
417.4000,0.104352
417.2000,0.103704
417.0000,0.103076
416.8000,0.102406
416.6000,0.101757
416.4000,0.101124
416.2000,0.10045
416.0000,0.0998086
415.8000,0.0991415
415.6000,0.0984696
415.4000,0.0978058
415.2000,0.0972042
415.0000,0.0966754
414.8000,0.0961576
414.6000,0.095652
414.4000,0.0951497
414.2000,0.0946641
414.0000,0.0941727
413.8000,0.0936557
413.6000,0.0931944
413.4000,0.0927004
413.2000,0.0921698
413.0000,0.0916651
412.8000,0.0911651
412.6000,0.0906424
412.4000,0.0901568
412.2000,0.0896885
412.0000,0.0892217
411.8000,0.0887285
411.6000,0.0882941
411.4000,0.0878653
411.2000,0.0874728
411.0000,0.087077
410.8000,0.0866375
410.6000,0.0862624
410.4000,0.0858627
410.2000,0.0854704
410.0000,0.0850855
409.8000,0.0847509
409.6000,0.0843538
409.4000,0.0839928
409.2000,0.0836365
409.0000,0.0832503
408.8000,0.0829058
408.6000,0.0825855
408.4000,0.0822477
408.2000,0.0819319
408.0000,0.0815869
407.8000,0.0812383
407.6000,0.0809665
407.4000,0.0806411
407.2000,0.0803628
407.0000,0.0800537
406.8000,0.079818
406.6000,0.0795001
406.4000,0.0792386
406.2000,0.0789997
406.0000,0.0787728
405.8000,0.0785152
405.6000,0.0782412
405.4000,0.0780492
405.2000,0.0778455
405.0000,0.0776139
404.8000,0.0774507
404.6000,0.0773059
404.4000,0.0771069
404.2000,0.0770004
404.0000,0.0768078
403.8000,0.0766918
403.6000,0.0765921
403.4000,0.0764869
403.2000,0.0763975
403.0000,0.0763587
402.8000,0.0762729
402.6000,0.0762916
402.4000,0.0763456
402.2000,0.0763055
402.0000,0.0762337
401.8000,0.0762756
401.6000,0.076241
401.4000,0.0762612
401.2000,0.0763279
401.0000,0.076365
400.8000,0.0765017
400.6000,0.076567
400.4000,0.0766309
400.2000,0.0767473
400.0000,0.0724658
399.8000,0.0725566
399.6000,0.0726626
399.4000,0.0728004
399.2000,0.0729015
399.0000,0.0730247
398.8000,0.0731941
398.6000,0.0733618
398.4000,0.0735642
398.2000,0.0737848
398.0000,0.0740224
397.8000,0.0742837
397.6000,0.0745428
397.4000,0.0748291
397.2000,0.0751122
397.0000,0.0754607
396.8000,0.0757837
396.6000,0.076149
396.4000,0.0765419
396.2000,0.0769385
396.0000,0.0773941
395.8000,0.0778533
395.6000,0.0783218
395.4000,0.0788144
395.2000,0.0793292
395.0000,0.0798452
394.8000,0.0804017
394.6000,0.0809721
394.4000,0.0816016
394.2000,0.0822386
394.0000,0.0829032
393.8000,0.0835669
393.6000,0.0842572
393.4000,0.0849913
393.2000,0.0857338
393.0000,0.0865121
392.8000,0.0873033
392.6000,0.0881291
392.4000,0.0889874
392.2000,0.0898823
392.0000,0.0907704
391.8000,0.0916947
391.6000,0.0926621
391.4000,0.0936335
391.2000,0.0946338
391.0000,0.0956432
390.8000,0.0966762
390.6000,0.0977504
390.4000,0.0988743
390.2000,0.100016
390.0000,0.101181
389.8000,0.102364
389.6000,0.103577
389.4000,0.104824
389.2000,0.106068
389.0000,0.107319
388.8000,0.108636
388.6000,0.109981
388.4000,0.111298
388.2000,0.112656
388.0000,0.114047
387.8000,0.115482
387.6000,0.116945
387.4000,0.118401
387.2000,0.119898
387.0000,0.121401
386.8000,0.122934
386.6000,0.12452
386.4000,0.126126
386.2000,0.127763
386.0000,0.129422
385.8000,0.131116
385.6000,0.132812
385.4000,0.134506
385.2000,0.136309
385.0000,0.138089
384.8000,0.139879
384.6000,0.14168
384.4000,0.143534
384.2000,0.145431
384.0000,0.147295
383.8000,0.149199
383.6000,0.151138
383.4000,0.153084
383.2000,0.155054
383.0000,0.157029
382.8000,0.159046
382.6000,0.161071
382.4000,0.163125
382.2000,0.165201
382.0000,0.167254
381.8000,0.169357
381.6000,0.171452
381.4000,0.173571
381.2000,0.175688
381.0000,0.177807
380.8000,0.17996
380.6000,0.182132
380.4000,0.184267
380.2000,0.186453
380.0000,0.188608
379.8000,0.190761
379.6000,0.192934
379.4000,0.195114
379.2000,0.197281
379.0000,0.199471
378.8000,0.201628
378.6000,0.203791
378.4000,0.205983
378.2000,0.208156
378.0000,0.210312
377.8000,0.212464
377.6000,0.214638
377.4000,0.216782
377.2000,0.218928
377.0000,0.221044
376.8000,0.223151
376.6000,0.225265
376.4000,0.227369
376.2000,0.229459
376.0000,0.231551
375.8000,0.233622
375.6000,0.235702
375.4000,0.237793
375.2000,0.239845
375.0000,0.241899
374.8000,0.243938
374.6000,0.245977
374.4000,0.247972
374.2000,0.249952
374.0000,0.251933
373.8000,0.253886
373.6000,0.255828
373.4000,0.257777
373.2000,0.259694
373.0000,0.261577
372.8000,0.263494
372.6000,0.265397
372.4000,0.26725
372.2000,0.26907
372.0000,0.270879
371.8000,0.272677
371.6000,0.274485
371.4000,0.276238
371.2000,0.278004
371.0000,0.279743
370.8000,0.281524
370.6000,0.283246
370.4000,0.284992
370.2000,0.286716
370.0000,0.290667
369.8000,0.292331
369.6000,0.293935
369.4000,0.295505
369.2000,0.297069
369.0000,0.298687
368.8000,0.300264
368.6000,0.30181
368.4000,0.303441
368.2000,0.305003
368.0000,0.306506
367.8000,0.308006
367.6000,0.309599
367.4000,0.311153
367.2000,0.312696
367.0000,0.314243
366.8000,0.315718
366.6000,0.317272
366.4000,0.318727
366.2000,0.320266
366.0000,0.321828
365.8000,0.323298
365.6000,0.324827
365.4000,0.326342
365.2000,0.327825
365.0000,0.329342
364.8000,0.330903
364.6000,0.332469
364.4000,0.333977
364.2000,0.335507
364.0000,0.337036
363.8000,0.338593
363.6000,0.340166
363.4000,0.341715
363.2000,0.343311
363.0000,0.344855
362.8000,0.346419
362.6000,0.347996
362.4000,0.349613
362.2000,0.351218
362.0000,0.352818
361.8000,0.354431
361.6000,0.356028
361.4000,0.357664
361.2000,0.359247
361.0000,0.360813
360.8000,0.362414
360.6000,0.363995
360.4000,0.365567
360.2000,0.367111
360.0000,0.368703
359.8000,0.370304
359.6000,0.371859
359.4000,0.373439
359.2000,0.374983
359.0000,0.376536
358.8000,0.3781
358.6000,0.379663
358.4000,0.381211
358.2000,0.382677
358.0000,0.384225
357.8000,0.385764
357.6000,0.387324
357.4000,0.388889
357.2000,0.390466
357.0000,0.391964
356.8000,0.393424
356.6000,0.394871
356.4000,0.396311
356.2000,0.397752
356.0000,0.399158
355.8000,0.400568
355.6000,0.401963
355.4000,0.403256
355.2000,0.404612
355.0000,0.405939
354.8000,0.407285
354.6000,0.408562
354.4000,0.409814
354.2000,0.411044
354.0000,0.412232
353.8000,0.413499
353.6000,0.414743
353.4000,0.415962
353.2000,0.417174
353.0000,0.418327
352.8000,0.419493
352.6000,0.420621
352.4000,0.421704
352.2000,0.422828
352.0000,0.423866
351.8000,0.424949
351.6000,0.42598
351.4000,0.426987
351.2000,0.428008
351.0000,0.429032
350.8000,0.430046
350.6000,0.430953
350.4000,0.431889
350.2000,0.432824
350.0000,0.433775
349.8000,0.434699
349.6000,0.435624
349.4000,0.436514
349.2000,0.437446
349.0000,0.438399
348.8000,0.439319
348.6000,0.440208
348.4000,0.441073
348.2000,0.441977
348.0000,0.442826
347.8000,0.443653
347.6000,0.444449
347.4000,0.445262
347.2000,0.446144
347.0000,0.447038
346.8000,0.447881
346.6000,0.448751
346.4000,0.449602
346.2000,0.450522
346.0000,0.451374
345.8000,0.452229
345.6000,0.453102
345.4000,0.454017
345.2000,0.454923
345.0000,0.455856
344.8000,0.456791
344.6000,0.457696
344.4000,0.458656
344.2000,0.459664
344.0000,0.460604
343.8000,0.461528
343.6000,0.462437
343.4000,0.463425
343.2000,0.464417
343.0000,0.465415
342.8000,0.466457
342.6000,0.467457
342.4000,0.468458
342.2000,0.469477
342.0000,0.470453
341.8000,0.471494
341.6000,0.472548
341.4000,0.47361
341.2000,0.474699
341.0000,0.475811
340.8000,0.476843
340.6000,0.4779
340.4000,0.479083
340.2000,0.480165
340.0000,0.477932
339.8000,0.479051
339.6000,0.48011
339.4000,0.481222
339.2000,0.482326
339.0000,0.48349
338.8000,0.484621
338.6000,0.485766
338.4000,0.486801
338.2000,0.487885
338.0000,0.488986
337.8000,0.48991
337.6000,0.490965
337.4000,0.491939
337.2000,0.493018
337.0000,0.494092
336.8000,0.495032
336.6000,0.496023
336.4000,0.497032
336.2000,0.497947
336.0000,0.498839
335.8000,0.499774
335.6000,0.500721
335.4000,0.501578
335.2000,0.50251
335.0000,0.503382
334.8000,0.504223
334.6000,0.505203
334.4000,0.505993
334.2000,0.506855
334.0000,0.507645
333.8000,0.508416
333.6000,0.509317
333.4000,0.51011
333.2000,0.51089
333.0000,0.511613
332.8000,0.512381
332.6000,0.513062
332.4000,0.513847
332.2000,0.514645
332.0000,0.515363
331.8000,0.516071
331.6000,0.516765
331.4000,0.517467
331.2000,0.518158
331.0000,0.518852
330.8000,0.519464
330.6000,0.520131
330.4000,0.520699
330.2000,0.521356
330.0000,0.521957
329.8000,0.522586
329.6000,0.523207
329.4000,0.523818
329.2000,0.524376
329.0000,0.524894
328.8000,0.525499
328.6000,0.526066
328.4000,0.526733
328.2000,0.527268
328.0000,0.527862
327.8000,0.528357
327.6000,0.528998
327.4000,0.529576
327.2000,0.530077
327.0000,0.530524
326.8000,0.53101
326.6000,0.531507
326.4000,0.531991
326.2000,0.532402
326.0000,0.532827
325.8000,0.533295
325.6000,0.533682
325.4000,0.534087
325.2000,0.534421
325.0000,0.534791
324.8000,0.535165
324.6000,0.535613
324.4000,0.535975
324.2000,0.536318
324.0000,0.536675
323.8000,0.537057
323.6000,0.53736
323.4000,0.53771
323.2000,0.538014
323.0000,0.538363
322.8000,0.538682
322.6000,0.538931
322.4000,0.539107
322.2000,0.539382
322.0000,0.539568
321.8000,0.539824
321.6000,0.539945
321.4000,0.540059
321.2000,0.540186
321.0000,0.540258
320.8000,0.540384
320.6000,0.540509
320.4000,0.540667
320.2000,0.540711
320.0000,0.540782
319.8000,0.540777
319.6000,0.540788
319.4000,0.540811
319.2000,0.540897
319.0000,0.54082
318.8000,0.540819
318.6000,0.540668
318.4000,0.540617
318.2000,0.540142
318.0000,0.540032
317.8000,0.539964
317.6000,0.539786
317.4000,0.539583
317.2000,0.539409
317.0000,0.539201
316.8000,0.53897
316.6000,0.53877
316.4000,0.538476
316.2000,0.538183
316.0000,0.537908
315.8000,0.537617
315.6000,0.537303
315.4000,0.536955
315.2000,0.536545
315.0000,0.536579
314.8000,0.536161
314.6000,0.53576
314.4000,0.535393
314.2000,0.534999
314.0000,0.534486
313.8000,0.534066
313.6000,0.533624
313.4000,0.533173
313.2000,0.532705
313.0000,0.532127
312.8000,0.531573
312.6000,0.531041
312.4000,0.530407
312.2000,0.529852
312.0000,0.529312
311.8000,0.528661
311.6000,0.528089
311.4000,0.527425
311.2000,0.52671
311.0000,0.525984
310.8000,0.525319
310.6000,0.524502
310.4000,0.523718
310.2000,0.522887
310.0000,0.522072
309.8000,0.521338
309.6000,0.52048
309.4000,0.519638
309.2000,0.518855
309.0000,0.518067
308.8000,0.517183
308.6000,0.516286
308.4000,0.515296
308.2000,0.514314
308.0000,0.513385
307.8000,0.5124
307.6000,0.511438
307.4000,0.510579
307.2000,0.509598
307.0000,0.508596
306.8000,0.507652
306.6000,0.506601
306.4000,0.505632
306.2000,0.50451
306.0000,0.503413
305.8000,0.502223
305.6000,0.501132
305.4000,0.499995
305.2000,0.498875
305.0000,0.497722
304.8000,0.496617
304.6000,0.495489
304.4000,0.494281
304.2000,0.493077
304.0000,0.49189
303.8000,0.490716
303.6000,0.489493
303.4000,0.488296
303.2000,0.487007
303.0000,0.485835
302.8000,0.484584
302.6000,0.483427
302.4000,0.482212
302.2000,0.480989
302.0000,0.479758
301.8000,0.478515
301.6000,0.477189
301.4000,0.475897
301.2000,0.474615
301.0000,0.473302
300.8000,0.471982
300.6000,0.470697
300.4000,0.469357
300.2000,0.46799
300.0000,0.466639
299.8000,0.465377
299.6000,0.46418
299.4000,0.462842
299.2000,0.46149
299.0000,0.460233
298.8000,0.458985
298.6000,0.457794
298.4000,0.456569
298.2000,0.455435
298.0000,0.45419
297.8000,0.452935
297.6000,0.451755
297.4000,0.450495
297.2000,0.449301
297.0000,0.448204
296.8000,0.447107
296.6000,0.445877
296.4000,0.444659
296.2000,0.443493
296.0000,0.44238
295.8000,0.441155
295.6000,0.440025
295.4000,0.43886
295.2000,0.437784
295.0000,0.436626
294.8000,0.435556
294.6000,0.434532
294.4000,0.433447
294.2000,0.432419
294.0000,0.431356
293.8000,0.430254
293.6000,0.429196
293.4000,0.428203
293.2000,0.427159
293.0000,0.426186
292.8000,0.425223
292.6000,0.42428
292.4000,0.423322
292.2000,0.422314
292.0000,0.421282
291.8000,0.420288
291.6000,0.419274
291.4000,0.41823
291.2000,0.417219
291.0000,0.41626
290.8000,0.415235
290.6000,0.414237
290.4000,0.413255
290.2000,0.412183
290.0000,0.411165
289.8000,0.410102
289.6000,0.409016
289.4000,0.407964
289.2000,0.40683
289.0000,0.405775
288.8000,0.40467
288.6000,0.40352
288.4000,0.4024
288.2000,0.401256
288.0000,0.400113
287.8000,0.398948
287.6000,0.397794
287.4000,0.396587
287.2000,0.395328
287.0000,0.394138
286.8000,0.392865
286.6000,0.391648
286.4000,0.390382
286.2000,0.38904
286.0000,0.387748
285.8000,0.3864
285.6000,0.385075
285.4000,0.383775
285.2000,0.382452
285.0000,0.381109
284.8000,0.379764
284.6000,0.378393
284.4000,0.377074
284.2000,0.375763
284.0000,0.37444
283.8000,0.373076
283.6000,0.371798
283.4000,0.370445
283.2000,0.369067
283.0000,0.367807
282.8000,0.366511
282.6000,0.365211
282.4000,0.363939
282.2000,0.362659
282.0000,0.361393
281.8000,0.360212
281.6000,0.359039
281.4000,0.35786
281.2000,0.356666
281.0000,0.355503
280.8000,0.354416
280.6000,0.353413
280.4000,0.352409
280.2000,0.351438
280.0000,0.350556
279.8000,0.349662
279.6000,0.348836
279.4000,0.348103
279.2000,0.347398
279.0000,0.346762
278.8000,0.346159
278.6000,0.345649
278.4000,0.345143
278.2000,0.34475
278.0000,0.344415
277.8000,0.344228
277.6000,0.344053
277.4000,0.343937
277.2000,0.343833
277.0000,0.34385
276.8000,0.343977
276.6000,0.3442
276.4000,0.344487
276.2000,0.344848
276.0000,0.345358
275.8000,0.345889
275.6000,0.346631
275.4000,0.347337
275.2000,0.348202
275.0000,0.349204
274.8000,0.350262
274.6000,0.351395
274.4000,0.352661
274.2000,0.354045
274.0000,0.355583
273.8000,0.357206
273.6000,0.359009
273.4000,0.360874
273.2000,0.362831
273.0000,0.364933
272.8000,0.367074
272.6000,0.369407
272.4000,0.371787
272.2000,0.374369
272.0000,0.377036
271.8000,0.379747
271.6000,0.382627
271.4000,0.385636
271.2000,0.388728
271.0000,0.391909
270.8000,0.395184
270.6000,0.398588
270.4000,0.401985
270.2000,0.405519
270.0000,0.409176
269.8000,0.412929
269.6000,0.416799
269.4000,0.420659
269.2000,0.424636
269.0000,0.428673
268.8000,0.432772
268.6000,0.436892
268.4000,0.44112
268.2000,0.44536
268.0000,0.449689
267.8000,0.45399
267.6000,0.4584
267.4000,0.462825
267.2000,0.46727
267.0000,0.471733
266.8000,0.476199
266.6000,0.480676
266.4000,0.485141
266.2000,0.489682
266.0000,0.494193
265.8000,0.498681
265.6000,0.503225
265.4000,0.507747
265.2000,0.512261
265.0000,0.516773
264.8000,0.521277
264.6000,0.525768
264.4000,0.530242
264.2000,0.53473
264.0000,0.539211
263.8000,0.543727
263.6000,0.548204
263.4000,0.552654
263.2000,0.557095
263.0000,0.561511
262.8000,0.565925
262.6000,0.5703
262.4000,0.574584
262.2000,0.578911
262.0000,0.583214
261.8000,0.587457
261.6000,0.59166
261.4000,0.595863
261.2000,0.599961
261.0000,0.60398
260.8000,0.60802
260.6000,0.611957
260.4000,0.615865
260.2000,0.619727
260.0000,0.623498
259.8000,0.627211
259.6000,0.630842
259.4000,0.63441
259.2000,0.637961
259.0000,0.641414
258.8000,0.644835
258.6000,0.64819
258.4000,0.651519
258.2000,0.654769
258.0000,0.657968
257.8000,0.661138
257.6000,0.664173
257.4000,0.667203
257.2000,0.670151
257.0000,0.67301
256.8000,0.67589
256.6000,0.67868
256.4000,0.681469
256.2000,0.684233
256.0000,0.686898
255.8000,0.689516
255.6000,0.69208
255.4000,0.694587
255.2000,0.697012
255.0000,0.699401
254.8000,0.701731
254.6000,0.704032
254.4000,0.70629
254.2000,0.708448
254.0000,0.710588
253.8000,0.712688
253.6000,0.714728
253.4000,0.716691
253.2000,0.71858
253.0000,0.72044
252.8000,0.722233
252.6000,0.723967
252.4000,0.725646
252.2000,0.727226
252.0000,0.728749
251.8000,0.730218
251.6000,0.731601
251.4000,0.732862
251.2000,0.734068
251.0000,0.735187
250.8000,0.7362
250.6000,0.737106
250.4000,0.73792
250.2000,0.73871
250.0000,0.739391
249.8000,0.739893
249.6000,0.740361
249.4000,0.740735
249.2000,0.740907
249.0000,0.741106
248.8000,0.741087
248.6000,0.741019
248.4000,0.74087
248.2000,0.740593
248.0000,0.740292
247.8000,0.739863
247.6000,0.739356
247.4000,0.738758
247.2000,0.737987
247.0000,0.737082
246.8000,0.73619
246.6000,0.735194
246.4000,0.733991
246.2000,0.732693
246.0000,0.731227
245.8000,0.729552
245.6000,0.727924
245.4000,0.726006
245.2000,0.723921
245.0000,0.721587
244.8000,0.719029
244.6000,0.716262
244.4000,0.713182
244.2000,0.709769
244.0000,0.706186
243.8000,0.702244
243.6000,0.697722
243.4000,0.692939
243.2000,0.68783
243.0000,0.682114
242.8000,0.676214
242.6000,0.669863
242.4000,0.662814
242.2000,0.655212
242.0000,0.647079
241.8000,0.638999
241.6000,0.630203
241.4000,0.621257
241.2000,0.61244
241.0000,0.603275
240.8000,0.593621
240.6000,0.584752
240.4000,0.576133
240.2000,0.567737
240.0000,0.560114
239.8000,0.553096
239.6000,0.546504
239.4000,0.540468
239.2000,0.534739
239.0000,0.530424
238.8000,0.527196
238.6000,0.523671
238.4000,0.52074
238.2000,0.518537
238.0000,0.516319
237.8000,0.515197
237.6000,0.51475
237.4000,0.513945
237.2000,0.513208
237.0000,0.512622
236.8000,0.511669
236.6000,0.51091
236.4000,0.510503
236.2000,0.510552
236.0000,0.51094
235.8000,0.510621
235.6000,0.510373
235.4000,0.510336
235.2000,0.510579
235.0000,0.510799
234.8000,0.510874
234.6000,0.510771
234.4000,0.510543
234.2000,0.510237
234.0000,0.509936
233.8000,0.509846
233.6000,0.510755
233.4000,0.51097
233.2000,0.511145
233.0000,0.510826
232.8000,0.510949
232.6000,0.511158
232.4000,0.511165
232.2000,0.511403
232.0000,0.511541
231.8000,0.511587
231.6000,0.512167
231.4000,0.511786
231.2000,0.512232
231.0000,0.511905
230.8000,0.512208
230.6000,0.512292
230.4000,0.511438
230.2000,0.511942
230.0000,0.511702
229.8000,0.511753
229.6000,0.51175
229.4000,0.511571
229.2000,0.511415
229.0000,0.511352
228.8000,0.511539
228.6000,0.511088
228.4000,0.51055
228.2000,0.510877
228.0000,0.510444
227.8000,0.510468
227.6000,0.510359
227.4000,0.510177
227.2000,0.510359
227.0000,0.510093
226.8000,0.511133
226.6000,0.510971
226.4000,0.51115
226.2000,0.511378
226.0000,0.511828
225.8000,0.511989
225.6000,0.512181
225.4000,0.512137
225.2000,0.512617
225.0000,0.512597
224.8000,0.512651
224.6000,0.512747
224.4000,0.512882
224.2000,0.513198
224.0000,0.513411
223.8000,0.513377
223.6000,0.512868
223.4000,0.513322
223.2000,0.512919
223.0000,0.512732
222.8000,0.5123
222.6000,0.512219
222.4000,0.511738
222.2000,0.511791
222.0000,0.511118
221.8000,0.511611
221.6000,0.511687
221.4000,0.511811
221.2000,0.511318
221.0000,0.510986
220.8000,0.511097
220.6000,0.511104
220.4000,0.510864
220.2000,0.510531
220.0000,0.51029
219.8000,0.510218
219.6000,0.510039
219.4000,0.509695
219.2000,0.509542
219.0000,0.509484
218.8000,0.509395
218.6000,0.509157
218.4000,0.508957
218.2000,0.508979
218.0000,0.509098
217.8000,0.50937
217.6000,0.508542
217.4000,0.508339
217.2000,0.508541
217.0000,0.508966
216.8000,0.509179
216.6000,0.509403
216.4000,0.509517
216.2000,0.509583
216.0000,0.509394
215.8000,0.509411
215.6000,0.509392
215.4000,0.509136
215.2000,0.508818
215.0000,0.508487
214.8000,0.50808
214.6000,0.508083
214.4000,0.508613
214.2000,0.50853
214.0000,0.508256
213.8000,0.507826
213.6000,0.507872
213.4000,0.507842
213.2000,0.508121
213.0000,0.507976
212.8000,0.508395
212.6000,0.50852
212.4000,0.508713
212.2000,0.508442
212.0000,0.508719
211.8000,0.508575
211.6000,0.50848
211.4000,0.508268
211.2000,0.507863
211.0000,0.50759
210.8000,0.507177
210.6000,0.507119
210.4000,0.507283
210.2000,0.506898
210.0000,0.506461
209.8000,0.506576
209.6000,0.505969
209.4000,0.505386
209.2000,0.505259
209.0000,0.50528
208.8000,0.505087
208.6000,0.504883
208.4000,0.505311
208.2000,0.504485
208.0000,0.504166
207.8000,0.504035
207.6000,0.503832
207.4000,0.50385
207.2000,0.503339
207.0000,0.50308
206.8000,0.502841
206.6000,0.502412
206.4000,0.502355
206.2000,0.502273
206.0000,0.50207
205.8000,0.501363
205.6000,0.500524
205.4000,0.500541
205.2000,0.50044
205.0000,0.500749
204.8000,0.500721
204.6000,0.500712
204.4000,0.50062
204.2000,0.500172
204.0000,0.500266
203.8000,0.499871
203.6000,0.499072
203.4000,0.498902
203.2000,0.498785
203.0000,0.498104
202.8000,0.497584
202.6000,0.497664
202.4000,0.497549
202.2000,0.497106
202.0000,0.496208
201.8000,0.495258
201.6000,0.494982
201.4000,0.494278
201.2000,0.493472
201.0000,0.49277
200.8000,0.491924
200.6000,0.491563
200.4000,0.491574
200.2000,0.490698
200.0000,0.490061

##### Extended Information
[Rg]
,c
Rg


,{ww

[f[^]
,2024/07/09 17:01

f[^^Cv,uf[^
,Wavelength [nm]
c,Abs
X^[g,800 nm
Gh,200 nm
f[^u,0.2 nm
f[^,3001    

[]
u,V-730
@,V-730
VA,C235561798

,2024/07/09 17:00

[h,Abs
,800 - 200 nm
f[^u,0.2 nm
oh,1.0 nm
X|X,0.96 sec
[h,A
x,200 nm/min
,340 nm
,D2/WI
tB^[,Xebv
,x[XC
J,1

