TITLE,c
DATA TYPE,ULTRAVIOLET SPECTRUM
ORIGIN,JASCO
OWNER,
DATE,24/07/09
TIME,17:28:58
SPECTROMETER/DATA SYSTEM,
LOCALE,1041
RESOLUTION,
DELTAX,-0.2
XUNITS,NANOMETERS
YUNITS,ABSORBANCE
FIRSTX,  800.0000
LASTX,  200.0000
NPOINTS,    3001
FIRSTY,     0.00076
MAXY,     0.74634
MINY,    -0.00008
XYDATA
800.0000,0.000755727
799.8000,0.000754891
799.6000,0.000754413
799.4000,0.000752444
799.2000,0.000750951
799.0000,0.000748325
798.8000,0.000749578
798.6000,0.000748683
798.4000,0.000742773
798.2000,0.000739788
798.0000,0.000734476
797.8000,0.000732744
797.6000,0.000727014
797.4000,0.000724447
797.2000,0.000726298
797.0000,0.000728805
796.8000,0.000727969
796.6000,0.000732983
796.4000,0.000735431
796.2000,0.000740743
796.0000,0.000740445
795.8000,0.000742116
795.6000,0.000738953
795.4000,0.000740027
795.2000,0.000743728
795.0000,0.00074731
794.8000,0.000750235
794.6000,0.000750712
794.4000,0.000755309
794.2000,0.000763248
794.0000,0.000762591
793.8000,0.000761398
793.6000,0.000760562
793.4000,0.000755548
793.2000,0.000752563
793.0000,0.000744146
792.8000,0.000746713
792.6000,0.000746474
792.4000,0.000748623
792.2000,0.000750295
792.0000,0.000749936
791.8000,0.000748265
791.6000,0.000750175
791.4000,0.000751011
791.2000,0.000748026
791.0000,0.000738177
790.8000,0.000735073
790.6000,0.000736744
790.4000,0.000735311
790.2000,0.000736147
790.0000,0.000734058
789.8000,0.000732625
789.6000,0.000732028
789.4000,0.000730178
789.2000,0.000728685
789.0000,0.000726596
788.8000,0.000720985
788.6000,0.00071806
788.4000,0.000710061
788.2000,0.000708867
788.0000,0.000707375
787.8000,0.000705524
787.6000,0.000705584
787.4000,0.00070433
787.2000,0.000706897
787.0000,0.000706897
786.8000,0.000709046
786.6000,0.000711553
786.4000,0.000709524
786.2000,0.000705285
786.0000,0.000707016
785.8000,0.000701584
785.6000,0.000705405
785.4000,0.000705643
785.2000,0.000710479
785.0000,0.000711792
784.8000,0.000712448
784.6000,0.000713284
784.4000,0.000714597
784.2000,0.000711732
784.0000,0.000708389
783.8000,0.000705464
783.6000,0.000702718
783.4000,0.000702957
783.2000,0.000701107
783.0000,0.000698599
782.8000,0.000689586
782.6000,0.000689168
782.4000,0.000683198
782.2000,0.000681766
782.0000,0.000676751
781.8000,0.000670603
781.6000,0.000661589
781.4000,0.00065944
781.2000,0.000655441
781.0000,0.000652934
780.8000,0.000654844
780.6000,0.0006595
780.4000,0.000661052
780.2000,0.000664037
780.0000,0.000663798
779.8000,0.000667021
779.6000,0.000667917
779.4000,0.000666245
779.2000,0.000666902
779.0000,0.00066141
778.8000,0.00065747
778.6000,0.000655859
778.4000,0.00065753
778.2000,0.000654665
778.0000,0.000652158
777.8000,0.000648815
777.6000,0.000647203
777.4000,0.000637532
777.2000,0.000635264
777.0000,0.000629354
776.8000,0.000627564
776.6000,0.000623982
776.4000,0.000623385
776.2000,0.000623683
776.0000,0.00061652
775.8000,0.000614252
775.6000,0.000608999
775.4000,0.000604402
775.2000,0.000602791
775.0000,0.000599448
774.8000,0.000593299
774.6000,0.000594254
774.4000,0.000587509
774.2000,0.000584166
774.0000,0.000577241
773.8000,0.000569601
773.6000,0.000566258
773.4000,0.000562258
773.2000,0.000560169
773.0000,0.000555274
772.8000,0.000556169
772.6000,0.00055611
772.4000,0.00056184
772.2000,0.000565661
772.0000,0.000568526
771.8000,0.000572406
771.6000,0.000575988
771.4000,0.000574257
771.2000,0.000575749
771.0000,0.00057951
770.8000,0.000583569
770.6000,0.000586136
770.4000,0.000584464
770.2000,0.000589777
770.0000,0.000594612
769.8000,0.000601239
769.6000,0.000609954
769.4000,0.000614431
769.2000,0.000614431
769.0000,0.000614729
768.8000,0.000614311
768.6000,0.000613894
768.4000,0.000613715
768.2000,0.000611685
768.0000,0.00061258
767.8000,0.000610013
767.6000,0.000606074
767.4000,0.000607626
767.2000,0.00060685
767.0000,0.000605775
766.8000,0.000602611
766.6000,0.000599507
766.4000,0.000589419
766.2000,0.000583987
766.0000,0.000577062
765.8000,0.00057163
765.6000,0.000564527
765.4000,0.000560109
765.2000,0.000556169
765.0000,0.000552349
764.8000,0.000544171
764.6000,0.000540947
764.4000,0.000539933
764.2000,0.00053844
764.0000,0.000537366
763.8000,0.000531456
763.6000,0.000527278
763.4000,0.000523039
763.2000,0.000524293
763.0000,0.000520652
762.8000,0.000520055
762.6000,0.000518801
762.4000,0.000515398
762.2000,0.000512235
762.0000,0.000512891
761.8000,0.000515637
761.6000,0.000521189
761.4000,0.000518025
761.2000,0.0005151
761.0000,0.000510921
760.8000,0.000513309
760.6000,0.000513369
760.4000,0.000508772
760.2000,0.00050734
760.0000,0.000505668
759.8000,0.000507877
759.6000,0.00050919
759.4000,0.000508175
759.2000,0.000513309
759.0000,0.000513608
758.8000,0.000512115
758.6000,0.000510265
758.4000,0.000507817
758.2000,0.000508295
758.0000,0.000510444
757.8000,0.000511339
757.6000,0.00050925
757.4000,0.000503937
757.2000,0.000501788
757.0000,0.000500356
756.8000,0.000497789
756.6000,0.000491401
756.4000,0.00048591
756.2000,0.00048197
756.0000,0.000476
755.8000,0.00047218
755.6000,0.000464599
755.4000,0.000456719
755.2000,0.000448899
755.0000,0.000445258
754.8000,0.000434692
754.6000,0.000426275
754.4000,0.000421321
754.2000,0.000420724
754.0000,0.000420604
753.8000,0.000417202
753.6000,0.000414157
753.4000,0.000415888
753.2000,0.000417023
753.0000,0.000418336
752.8000,0.00041947
752.6000,0.000421261
752.4000,0.000424484
752.2000,0.000424544
752.0000,0.000425857
751.8000,0.00042729
751.6000,0.000431528
751.4000,0.000434095
751.2000,0.000432185
751.0000,0.000430275
750.8000,0.000426872
750.6000,0.000424544
750.4000,0.000422037
750.2000,0.000416903
750.0000,0.000413919
749.8000,0.000412546
749.6000,0.000408367
749.4000,0.000408665
749.2000,0.000407293
749.0000,0.000410098
748.8000,0.000404726
748.6000,0.000399114
748.4000,0.000397025
748.2000,0.000392667
748.0000,0.000391175
747.8000,0.000396428
747.6000,0.000397562
747.4000,0.000398995
747.2000,0.000393264
747.0000,0.000393324
746.8000,0.000395592
746.6000,0.000392966
746.4000,0.000396309
746.2000,0.000391414
746.0000,0.000388787
745.8000,0.000383773
745.6000,0.000381923
745.4000,0.00038049
745.2000,0.000376013
745.0000,0.000373148
744.8000,0.000365089
744.6000,0.00035315
744.4000,0.000349688
744.2000,0.000340734
744.0000,0.000343957
743.8000,0.000343181
743.6000,0.000338107
743.4000,0.000333153
743.2000,0.000330168
743.0000,0.000328914
742.8000,0.000331183
742.6000,0.000330824
742.4000,0.000333212
742.2000,0.000332973
742.0000,0.00033363
741.8000,0.000335122
741.6000,0.00033948
741.4000,0.00034342
741.2000,0.000342704
741.0000,0.000348434
740.8000,0.000348016
740.6000,0.000344196
740.4000,0.000345927
740.2000,0.000348792
740.0000,0.000182544
739.8000,0.000194543
739.6000,0.000198244
739.4000,0.00020678
739.2000,0.000219017
739.0000,0.000231255
738.8000,0.00024385
738.6000,0.000254237
738.4000,0.000261699
738.2000,0.000273757
738.0000,0.000286591
737.8000,0.000287248
737.6000,0.000285218
737.4000,0.00028092
737.2000,0.00027698
737.0000,0.000273458
736.8000,0.000267489
736.6000,0.000263012
736.4000,0.000264803
736.2000,0.000265937
736.0000,0.000264086
735.8000,0.000254953
735.6000,0.000249163
735.4000,0.000243194
735.2000,0.000239313
735.0000,0.000231911
734.8000,0.000222122
734.6000,0.000213287
734.4000,0.00020296
734.2000,0.000190185
734.0000,0.000180575
733.8000,0.000170904
733.6000,0.000160458
733.4000,0.000148041
733.2000,0.000135625
733.0000,0.00011909
732.8000,9.94503E-005
732.6000,9.18691E-005
732.4000,8.23778E-005
732.2000,6.9663E-005
732.0000,5.31874E-005
731.8000,4.7218E-005
731.6000,4.22037E-005
731.4000,3.77266E-005
731.2000,4.39945E-005
731.0000,5.34262E-005
730.8000,6.38726E-005
730.6000,7.87961E-005
730.4000,9.62865E-005
730.2000,0.000119567
730.0000,0.000141356
729.8000,0.000166785
729.6000,0.000201408
729.4000,0.000227972
729.2000,0.000260027
729.0000,0.000291605
728.8000,0.000323601
728.6000,0.000347181
728.4000,0.000374461
728.2000,0.000395234
728.0000,0.000410695
727.8000,0.000421977
727.6000,0.000432662
727.4000,0.000437319
727.2000,0.000438632
727.0000,0.00044687
726.8000,0.000453436
726.6000,0.000452958
726.4000,0.000456003
726.2000,0.000456839
726.0000,0.000447347
725.8000,0.000440542
725.6000,0.00043111
725.4000,0.00042544
725.2000,0.000414396
725.0000,0.000409024
724.8000,0.000404188
724.6000,0.00040001
724.4000,0.000401741
724.2000,0.000404009
724.0000,0.00040383
723.8000,0.000400368
723.6000,0.000393503
723.4000,0.000393264
723.2000,0.000388489
723.0000,0.000380788
722.8000,0.000377565
722.6000,0.000374043
722.4000,0.00037273
722.2000,0.000367178
722.0000,0.00036479
721.8000,0.000358761
721.6000,0.000350583
721.4000,0.000342704
721.2000,0.000332854
721.0000,0.000322169
720.8000,0.00031405
720.6000,0.00030247
720.4000,0.000297455
720.2000,0.000294829
720.0000,0.000286711
719.8000,0.000284144
719.6000,0.000283009
719.4000,0.00027907
719.2000,0.000274294
719.0000,0.000274593
718.8000,0.000272324
718.6000,0.000271369
718.4000,0.000273697
718.2000,0.000276204
718.0000,0.000277637
717.8000,0.000276563
717.6000,0.000281099
717.4000,0.00028289
717.2000,0.000282054
717.0000,0.000280681
716.8000,0.000280264
716.6000,0.000279129
716.4000,0.000278712
716.2000,0.000279607
716.0000,0.000280502
715.8000,0.000283547
715.6000,0.000285278
715.4000,0.000292262
715.2000,0.000289039
715.0000,0.000287666
714.8000,0.000285517
714.6000,0.000286114
714.4000,0.000279129
714.2000,0.00027704
714.0000,0.000278294
713.8000,0.000272384
713.6000,0.000271548
713.4000,0.000269578
713.2000,0.000267191
713.0000,0.000266713
712.8000,0.000264504
712.6000,0.000258416
712.4000,0.000258236
712.2000,0.000252088
712.0000,0.00025561
711.8000,0.000251431
711.6000,0.000248566
711.4000,0.000248984
711.2000,0.000254237
711.0000,0.00025949
710.8000,0.000255968
710.6000,0.000258595
710.4000,0.000258774
710.2000,0.000261997
710.0000,0.00025943
709.8000,0.000258296
709.6000,0.000254118
709.4000,0.0002537
709.2000,0.000250417
709.0000,0.000245641
708.8000,0.000240627
708.6000,0.000243671
708.4000,0.000241462
708.2000,0.000240209
708.0000,0.000241283
707.8000,0.000239552
707.6000,0.000245641
707.4000,0.000244984
707.2000,0.000246298
707.0000,0.000241104
706.8000,0.000236985
706.6000,0.000236269
706.4000,0.000239194
706.2000,0.00024003
706.0000,0.000241164
705.8000,0.000244626
705.6000,0.000247074
705.4000,0.000244507
705.2000,0.000244865
705.0000,0.000243611
704.8000,0.000239433
704.6000,0.000232926
704.4000,0.000226957
704.2000,0.000223733
704.0000,0.000216331
703.8000,0.00021454
703.6000,0.000215436
703.4000,0.000213466
703.2000,0.000210004
703.0000,0.000203199
702.8000,0.000198662
702.6000,0.000196035
702.4000,0.000192275
702.2000,0.000191439
702.0000,0.000190782
701.8000,0.000189409
701.6000,0.00018923
701.4000,0.000190782
701.2000,0.000190126
701.0000,0.00018923
700.8000,0.000190782
700.6000,0.000192095
700.4000,0.000194065
700.2000,0.00019317
700.0000,0.000196931
699.8000,0.000200811
699.6000,0.000201885
699.4000,0.000201288
699.2000,0.00020099
699.0000,0.000198363
698.8000,0.000199318
698.6000,0.000196035
698.4000,0.0001912
698.2000,0.000186425
698.0000,0.000182246
697.8000,0.00018535
697.6000,0.000188812
697.4000,0.000184634
697.2000,0.000187499
697.0000,0.000188096
696.8000,0.000187738
696.6000,0.000189469
696.4000,0.000188156
696.2000,0.000188574
696.0000,0.000188574
695.8000,0.000187678
695.6000,0.00018332
695.4000,0.000183798
695.2000,0.000182962
695.0000,0.000182903
694.8000,0.000180276
694.6000,0.000173531
694.4000,0.000166725
694.2000,0.000165651
694.0000,0.000160458
693.8000,0.000155384
693.6000,0.000152339
693.4000,0.000146012
693.2000,0.000140579
693.0000,0.00013861
692.8000,0.000135088
692.6000,0.000134013
692.4000,0.000131625
692.2000,0.000128163
692.0000,0.000123746
691.8000,0.000121836
691.6000,0.000123149
691.4000,0.000122074
691.2000,0.000121239
691.0000,0.000123268
690.8000,0.000119149
690.6000,0.000120463
690.4000,0.000118075
690.2000,0.000119388
690.0000,0.000119448
689.8000,0.000117478
689.6000,0.000118552
689.4000,0.000118731
689.2000,0.000119448
689.0000,0.000120761
688.8000,0.00012488
688.6000,0.000127686
688.4000,0.00013079
688.2000,0.000129894
688.0000,0.000133177
687.8000,0.000131446
687.6000,0.000129059
687.4000,0.000130372
687.2000,0.000130133
687.0000,0.00012882
686.8000,0.000127984
686.6000,0.000126432
686.4000,0.000121597
686.2000,0.000120284
686.0000,0.000121358
685.8000,0.000119448
685.6000,0.000117478
685.4000,0.000115508
685.2000,0.000116344
685.0000,0.000119627
684.8000,0.000118314
684.6000,0.000119448
684.4000,0.000126193
684.2000,0.000125716
684.0000,0.000129059
683.8000,0.000130133
683.6000,0.000133416
683.4000,0.000131267
683.2000,0.00013079
683.0000,0.000132103
682.8000,0.000132521
682.6000,0.000135804
682.4000,0.000137117
682.2000,0.000138669
682.0000,0.000132521
681.8000,0.00013079
681.6000,0.000129655
681.4000,0.000126671
681.2000,0.000122492
681.0000,0.000116403
680.8000,0.000113598
680.6000,0.000112046
680.4000,0.000109897
680.2000,0.00011127
680.0000,0.000114971
679.8000,0.000118314
679.6000,0.000115687
679.4000,0.000115269
679.2000,0.000112702
679.0000,0.000109837
678.8000,0.000108703
678.6000,0.000108524
678.4000,0.000108703
678.2000,0.000109121
678.0000,0.000111568
677.8000,0.000112643
677.6000,0.000111747
677.4000,0.000111807
677.2000,0.000113538
677.0000,0.000113538
676.8000,0.000112225
676.6000,0.000107628
676.4000,0.000106733
676.2000,0.000104286
676.0000,0.000107807
675.8000,0.000110255
675.6000,0.000113777
675.4000,0.000115508
675.2000,0.000115269
675.0000,0.000118135
674.8000,0.000119448
674.6000,0.000123149
674.4000,0.000125358
674.2000,0.000128879
674.0000,0.000129118
673.8000,0.000133655
673.6000,0.000135207
673.4000,0.000138968
673.2000,0.000141356
673.0000,0.000142908
672.8000,0.000145057
672.6000,0.000140878
672.4000,0.000140042
672.2000,0.000136759
672.0000,0.00013658
671.8000,0.000136998
671.6000,0.000132819
671.4000,0.000129775
671.2000,0.000125775
671.0000,0.000117657
670.8000,0.000114851
670.6000,0.000107628
670.4000,0.000105599
670.2000,9.99278E-005
670.0000,9.71222E-005
669.8000,9.59283E-005
669.6000,9.34809E-005
669.4000,9.61671E-005
669.2000,9.46748E-005
669.0000,9.50926E-005
668.8000,9.27049E-005
668.6000,9.04365E-005
668.4000,9.11528E-005
668.2000,9.11528E-005
668.0000,9.0735E-005
667.8000,9.53314E-005
667.6000,9.35406E-005
667.4000,9.13916E-005
667.2000,9.24064E-005
667.0000,8.98395E-005
666.8000,8.5661E-005
666.6000,8.32135E-005
666.4000,8.01691E-005
666.2000,7.96916E-005
666.0000,7.64681E-005
665.8000,7.81992E-005
665.6000,8.17212E-005
665.4000,8.10645E-005
665.2000,7.93334E-005
665.0000,7.97513E-005
664.8000,7.95125E-005
664.6000,7.29461E-005
664.4000,7.07374E-005
664.2000,7.16329E-005
664.0000,6.54247E-005
663.8000,6.78721E-005
663.6000,7.18119E-005
663.4000,7.15732E-005
663.2000,7.11553E-005
663.0000,6.63201E-005
662.8000,6.56635E-005
662.6000,5.90971E-005
662.4000,5.46798E-005
662.2000,5.05012E-005
662.0000,4.65614E-005
661.8000,4.43527E-005
661.6000,4.28006E-005
661.4000,4.41736E-005
661.2000,4.17261E-005
661.0000,3.9995E-005
660.8000,3.89205E-005
660.6000,3.16378E-005
660.4000,2.65639E-005
660.2000,2.32807E-005
660.0000,1.75501E-005
659.8000,1.62965E-005
659.6000,1.68934E-005
659.4000,1.75501E-005
659.2000,1.46847E-005
659.0000,1.12225E-005
658.8000,1.2297E-005
658.6000,5.31277E-006
658.4000,-4.17858E-007
658.2000,-5.0143E-006
658.0000,-3.93981E-006
657.8000,-4.59644E-006
657.6000,-5.73063E-006
657.4000,-2.86531E-006
657.2000,-2.86531E-006
657.0000,-4.41736E-006
656.8000,-1.31327E-006
656.6000,-1.13419E-006
656.4000,-2.86531E-006
656.2000,-5.07399E-006
656.0000,-5.49185E-006
655.8000,-7.93931E-006
655.6000,-1.39087E-005
655.4000,-1.49832E-005
655.2000,-1.49235E-005
655.0000,-1.31924E-005
654.8000,-1.42669E-005
654.6000,-1.45057E-005
654.4000,-1.45057E-005
654.2000,-1.25358E-005
654.0000,-1.18791E-005
653.8000,-1.20582E-005
653.6000,-1.27745E-005
653.4000,-1.49832E-005
653.2000,-1.60577E-005
653.0000,-1.36102E-005
652.8000,-1.39087E-005
652.6000,-1.3849E-005
652.4000,-9.43166E-006
652.2000,-7.46176E-006
652.0000,-6.20818E-006
651.8000,-6.56635E-006
651.6000,-6.80512E-006
651.4000,-7.87961E-006
651.2000,-7.76023E-006
651.0000,-1.51623E-005
650.8000,-1.71919E-005
650.6000,-2.22062E-005
650.4000,-2.85935E-005
650.2000,-3.34287E-005
650.0000,-3.91593E-005
649.8000,-4.99639E-005
649.6000,-5.5217E-005
649.4000,-5.61124E-005
649.2000,-5.99328E-005
649.0000,-6.45293E-005
648.8000,-6.28578E-005
648.6000,-6.52456E-005
648.4000,-7.25283E-005
648.2000,-7.39012E-005
648.0000,-7.18716E-005
647.8000,-7.03196E-005
647.6000,-7.56324E-005
647.4000,-7.84977E-005
647.2000,-7.40803E-005
647.0000,-7.18716E-005
646.8000,-7.14538E-005
646.6000,-6.83497E-005
646.4000,-6.88272E-005
646.2000,-7.01405E-005
646.0000,-7.01405E-005
645.8000,-7.16926E-005
645.6000,-7.65278E-005
645.4000,-7.93931E-005
645.2000,-7.61099E-005
645.0000,-7.74232E-005
644.8000,-8.05273E-005
644.6000,-8.09451E-005
644.4000,-7.7662E-005
644.2000,-7.25283E-005
644.0000,-7.40803E-005
643.8000,-7.23492E-005
643.6000,-6.83497E-005
643.4000,-6.66186E-005
643.2000,-6.37533E-005
643.0000,-5.97537E-005
642.8000,-5.46798E-005
642.6000,-5.09787E-005
642.4000,-5.20532E-005
642.2000,-5.05012E-005
642.0000,-5.4441E-005
641.8000,-5.55752E-005
641.6000,-5.66497E-005
641.4000,-5.64706E-005
641.2000,-5.90971E-005
641.0000,-6.04701E-005
640.8000,-5.86196E-005
640.6000,-5.77838E-005
640.4000,-5.97537E-005
640.2000,-5.99925E-005
640.0000,-5.82614E-005
639.8000,-5.5217E-005
639.6000,-5.6769E-005
639.4000,-5.79032E-005
639.2000,-5.05609E-005
639.0000,-4.3517E-005
638.8000,-3.91593E-005
638.6000,-3.60552E-005
638.4000,-2.9847E-005
638.2000,-2.80562E-005
638.0000,-1.89827E-005
637.8000,-1.61174E-005
637.6000,-1.50429E-005
637.4000,-1.03868E-005
637.2000,-9.55105E-006
637.0000,-6.86482E-006
636.8000,-3.10409E-006
636.6000,-5.49185E-006
636.4000,-8.35717E-006
636.2000,-5.73063E-006
636.0000,-9.55105E-006
635.8000,-1.28342E-005
635.6000,-8.83472E-006
635.4000,-1.03868E-005
635.2000,-1.68337E-005
635.0000,-1.70128E-005
634.8000,-2.09526E-005
634.6000,-2.537E-005
634.4000,-2.60863E-005
634.2000,-3.22348E-005
634.0000,-3.11603E-005
633.8000,-3.35481E-005
633.6000,-3.68909E-005
633.4000,-3.90996E-005
633.2000,-3.90996E-005
633.0000,-4.20246E-005
632.8000,-4.39945E-005
632.6000,-4.57256E-005
632.4000,-5.06206E-005
632.2000,-5.08593E-005
632.0000,-4.70389E-005
631.8000,-4.97251E-005
631.6000,-5.03818E-005
631.4000,-4.44124E-005
631.2000,-4.04726E-005
631.0000,-3.66521E-005
630.8000,-3.37868E-005
630.6000,-2.85935E-005
630.4000,-2.76383E-005
630.2000,-2.4594E-005
630.0000,-2.48327E-005
629.8000,-1.90424E-005
629.6000,-1.68337E-005
629.4000,-1.5998E-005
629.2000,-1.03868E-005
629.0000,-6.62604E-006
628.8000,-6.20818E-006
628.6000,-3.9995E-006
628.4000,-2.38776E-007
628.2000,0
628.0000,-3.9995E-006
627.8000,-3.10409E-006
627.6000,-2.68623E-006
627.4000,-4.65614E-006
627.2000,-3.9995E-006
627.0000,-7.52145E-006
626.8000,-6.20818E-006
626.6000,-9.49135E-006
626.4000,-1.06255E-005
626.2000,-9.49135E-006
626.0000,-1.06255E-005
625.8000,-1.17E-005
625.6000,-1.03868E-005
625.4000,-8.83472E-006
625.2000,-9.96891E-006
625.0000,-1.17597E-005
624.8000,-1.24164E-005
624.6000,-1.28342E-005
624.4000,-1.59383E-005
624.2000,-1.77291E-005
624.0000,-1.90424E-005
623.8000,-1.88036E-005
623.6000,-1.77291E-005
623.4000,-1.37296E-005
623.2000,-1.43863E-005
623.0000,-1.17597E-005
622.8000,-9.96891E-006
622.6000,-9.49135E-006
622.4000,-9.31227E-006
622.2000,-9.0735E-006
622.0000,-6.68573E-006
621.8000,-1.13419E-006
621.6000,2.44746E-006
621.4000,6.0291E-006
621.2000,9.0735E-006
621.0000,1.4446E-005
620.8000,1.77888E-005
620.6000,2.14899E-005
620.4000,2.46536E-005
620.2000,2.81756E-005
620.0000,3.64134E-005
619.8000,3.90996E-005
619.6000,4.32782E-005
619.4000,4.72777E-005
619.2000,4.72777E-005
619.0000,4.94864E-005
618.8000,5.08593E-005
618.6000,4.88297E-005
618.4000,5.19338E-005
618.2000,5.52767E-005
618.0000,6.14849E-005
617.8000,6.30369E-005
617.6000,6.81109E-005
617.4000,7.49757E-005
617.2000,7.61099E-005
617.0000,7.71844E-005
616.8000,7.96319E-005
616.6000,8.0587E-005
616.4000,7.99303E-005
616.2000,8.19002E-005
616.0000,8.7213E-005
615.8000,8.94217E-005
615.6000,9.21079E-005
615.4000,9.40778E-005
615.2000,9.70028E-005
615.0000,9.34212E-005
614.8000,9.05559E-005
614.6000,8.91829E-005
614.4000,8.50043E-005
614.2000,8.2139E-005
614.0000,8.60191E-005
613.8000,8.36314E-005
613.6000,8.24972E-005
613.4000,8.2736E-005
613.2000,8.29747E-005
613.0000,8.29747E-005
612.8000,8.22584E-005
612.6000,8.26763E-005
612.4000,8.07064E-005
612.2000,8.40492E-005
612.0000,8.18405E-005
611.8000,8.09451E-005
611.6000,8.40492E-005
611.4000,8.49446E-005
611.2000,8.62579E-005
611.0000,8.76309E-005
610.8000,8.47656E-005
610.6000,8.20793E-005
610.4000,7.89155E-005
610.2000,7.86768E-005
610.0000,7.87365E-005
609.8000,7.84977E-005
609.6000,7.73635E-005
609.4000,7.89155E-005
609.2000,8.38104E-005
609.0000,8.35717E-005
608.8000,8.89441E-005
608.6000,9.21079E-005
608.4000,9.29436E-005
608.2000,9.30033E-005
608.0000,9.64656E-005
607.8000,9.74207E-005
607.6000,0.000100047
607.4000,0.00010739
607.2000,0.000116284
607.0000,0.000118075
606.8000,0.000122074
606.6000,0.000128342
606.4000,0.000131864
606.2000,0.000133416
606.0000,0.000131446
605.8000,0.000133237
605.6000,0.000131028
605.4000,0.000134849
605.2000,0.000132939
605.0000,0.000137416
604.8000,0.00013861
604.6000,0.000139744
604.4000,0.000143504
604.2000,0.000143743
604.0000,0.000141714
603.8000,0.000143504
603.6000,0.000144161
603.4000,0.000145952
603.2000,0.000148399
603.0000,0.000148877
602.8000,0.000153056
602.6000,0.000157294
602.4000,0.000162428
602.2000,0.000168039
602.0000,0.000174963
601.8000,0.000180992
601.6000,0.000186066
601.4000,0.000192991
601.2000,0.000197886
601.0000,0.000202363
600.8000,0.000207258
600.6000,0.000215078
600.4000,0.000217107
600.2000,0.000218838
600.0000,0.000221942
599.8000,0.000226837
599.6000,0.000227076
599.4000,0.000226181
599.2000,0.000227076
599.0000,0.000227793
598.8000,0.000227972
598.6000,0.000229345
598.4000,0.000228867
598.2000,0.000227076
598.0000,0.000226002
597.8000,0.000227375
597.6000,0.000228091
597.4000,0.000228807
597.2000,0.000234419
597.0000,0.000239373
596.8000,0.000242358
596.6000,0.000246417
596.4000,0.000254953
596.2000,0.000259012
596.0000,0.000261758
595.8000,0.000262176
595.6000,0.000269996
595.4000,0.000269757
595.2000,0.00027513
595.0000,0.000280264
594.8000,0.000282532
594.6000,0.000284084
594.4000,0.000286949
594.2000,0.000290113
594.0000,0.000290113
593.8000,0.000290531
593.6000,0.000293217
593.4000,0.000295724
593.2000,0.000295247
593.0000,0.000302171
592.8000,0.000308857
592.6000,0.000313095
592.4000,0.000313095
592.2000,0.00031799
592.0000,0.000319363
591.8000,0.000321154
591.6000,0.000328079
591.4000,0.000332973
591.2000,0.000336794
591.0000,0.000337928
590.8000,0.000337928
590.6000,0.000342465
590.4000,0.00034539
590.2000,0.000349747
590.0000,0.000354881
589.8000,0.000355597
589.6000,0.000353628
589.4000,0.000355956
589.2000,0.000362044
589.0000,0.000367954
588.8000,0.000375595
588.6000,0.000385922
588.4000,0.000387474
588.2000,0.000393802
588.0000,0.000399652
587.8000,0.000403054
587.6000,0.000412665
587.4000,0.000414933
587.2000,0.000417978
587.0000,0.000423649
586.8000,0.000425857
586.6000,0.000431409
586.4000,0.000440184
586.2000,0.000452003
586.0000,0.000457376
585.8000,0.000463047
585.6000,0.000469733
585.4000,0.00047218
585.2000,0.000479582
585.0000,0.000486327
584.8000,0.000492058
584.6000,0.000499699
584.4000,0.000510444
584.2000,0.000525308
584.0000,0.000538082
583.8000,0.000546439
583.6000,0.000559274
583.4000,0.00056387
583.2000,0.000569302
583.0000,0.000571809
582.8000,0.000578614
582.6000,0.000584047
582.4000,0.000589718
582.2000,0.00059712
582.0000,0.000607924
581.8000,0.000618908
581.6000,0.000629533
581.4000,0.000639025
581.2000,0.000642189
581.0000,0.000640219
580.8000,0.00064768
580.6000,0.000654247
580.4000,0.000661231
580.2000,0.000672752
580.0000,0.000684452
579.8000,0.000694958
579.6000,0.000704629
579.4000,0.00071406
579.2000,0.000722776
579.0000,0.000732924
578.8000,0.000742534
578.6000,0.000748802
578.4000,0.00075889
578.2000,0.00077065
578.0000,0.000781276
577.8000,0.000796199
577.6000,0.000804497
577.4000,0.000812197
577.2000,0.000818346
577.0000,0.000830106
576.8000,0.000837328
576.6000,0.000847715
576.4000,0.000854938
576.2000,0.00086825
576.0000,0.000879353
575.8000,0.000888606
575.6000,0.000896366
575.4000,0.00090335
575.2000,0.000909678
575.0000,0.000912901
574.8000,0.000916065
574.6000,0.000915946
574.4000,0.000920661
574.2000,0.000925735
574.0000,0.000937614
573.8000,0.000942927
573.6000,0.000947464
573.4000,0.00095403
573.2000,0.000958328
573.0000,0.00096197
572.8000,0.000964716
572.6000,0.00097564
572.4000,0.000985847
572.2000,0.000995876
572.0000,0.00100376
571.8000,0.00101844
571.6000,0.00103742
571.4000,0.00105503
571.2000,0.00106858
571.0000,0.00108912
570.8000,0.00110201
570.6000,0.00111419
570.4000,0.00112911
570.2000,0.00113998
570.0000,0.00115824
569.8000,0.00117299
569.6000,0.00119125
569.4000,0.00120254
569.2000,0.00121818
569.0000,0.00123507
568.8000,0.00125698
568.6000,0.00127077
568.4000,0.0012848
568.2000,0.0013036
568.0000,0.00132813
567.8000,0.00134855
567.6000,0.0013701
567.4000,0.00139302
567.2000,0.00141505
567.0000,0.00144227
566.8000,0.00147253
566.6000,0.00150339
566.4000,0.00153557
566.2000,0.0015641
566.0000,0.00158744
565.8000,0.00160989
565.6000,0.00162625
565.4000,0.00164756
565.2000,0.00166123
565.0000,0.00167131
564.8000,0.0016777
564.6000,0.00168295
564.4000,0.00169
564.2000,0.00169931
564.0000,0.00171
563.8000,0.00171597
563.6000,0.00171967
563.4000,0.00171931
563.2000,0.00171561
563.0000,0.00171865
562.8000,0.00173029
562.6000,0.00174241
562.4000,0.00175405
562.2000,0.00176909
562.0000,0.00179273
561.8000,0.001815
561.6000,0.00184067
561.4000,0.00186723
561.2000,0.00189248
561.0000,0.00192084
560.8000,0.00195015
560.6000,0.00197062
560.4000,0.00198972
560.2000,0.00201557
560.0000,0.00203969
559.8000,0.00206691
559.6000,0.00208565
559.4000,0.00211365
559.2000,0.00214714
559.0000,0.00217895
558.8000,0.0022045
558.6000,0.00223793
558.4000,0.00226503
558.2000,0.00229064
558.0000,0.00231929
557.8000,0.00234735
557.6000,0.00237541
557.4000,0.0024154
557.2000,0.00245354
557.0000,0.0024856
556.8000,0.00252243
556.6000,0.00255538
556.4000,0.00259036
556.2000,0.00261866
556.0000,0.00265107
555.8000,0.00268098
555.6000,0.00271614
555.4000,0.00274378
555.2000,0.00277709
555.0000,0.00281338
554.8000,0.00284353
554.6000,0.00287302
554.4000,0.00290041
554.2000,0.00292602
554.0000,0.00295396
553.8000,0.00298548
553.6000,0.00302171
553.4000,0.00305669
553.2000,0.00308976
553.0000,0.00312671
552.8000,0.0031645
552.6000,0.00320479
552.4000,0.00324372
552.2000,0.00328467
552.0000,0.00332018
551.8000,0.00335815
551.6000,0.00339844
551.4000,0.00343736
551.2000,0.00347587
551.0000,0.00352159
550.8000,0.00356457
550.6000,0.00360689
550.4000,0.00364396
550.2000,0.00368259
550.0000,0.00372366
549.8000,0.00376383
549.6000,0.00379935
549.4000,0.003832
549.2000,0.0038662
549.0000,0.00390339
548.8000,0.00394375
548.6000,0.00398506
548.4000,0.00402636
548.2000,0.0040709
548.0000,0.00412098
547.8000,0.00416736
547.6000,0.004215
547.4000,0.00426204
547.2000,0.00431463
547.0000,0.00436381
546.8000,0.00441503
546.6000,0.00446016
546.4000,0.00450618
546.2000,0.00456015
546.0000,0.00461304
545.8000,0.00466981
545.6000,0.00472622
545.4000,0.00477821
545.2000,0.00483587
545.0000,0.00488661
544.8000,0.00493992
544.6000,0.00499018
544.4000,0.0050448
544.2000,0.00510056
544.0000,0.00515387
543.8000,0.00520944
543.6000,0.00526072
543.4000,0.0053256
543.2000,0.00539049
543.0000,0.00545568
542.8000,0.00552862
542.6000,0.00559918
542.4000,0.00566908
542.2000,0.00574227
542.0000,0.00581378
541.8000,0.00589509
541.6000,0.00596941
541.4000,0.00604295
541.2000,0.00611404
541.0000,0.00618538
540.8000,0.00625743
540.6000,0.00632464
540.4000,0.00640272
540.2000,0.00647167
540.0000,0.00653883
539.8000,0.00660568
539.6000,0.0066643
539.4000,0.00672179
539.2000,0.00678262
539.0000,0.00684464
538.8000,0.00690738
538.6000,0.00696486
538.4000,0.00702611
538.2000,0.00708521
538.0000,0.00714974
537.8000,0.00721337
537.6000,0.00727659
537.4000,0.00734959
537.2000,0.00741728
537.0000,0.00748695
536.8000,0.0075621
536.6000,0.00763708
536.4000,0.00771295
536.2000,0.00779115
536.0000,0.00786815
535.8000,0.00794379
535.6000,0.00801733
535.4000,0.00809917
535.2000,0.00818232
535.0000,0.00826882
534.8000,0.00835711
534.6000,0.00844826
534.4000,0.00854091
534.2000,0.00863295
534.0000,0.00872357
533.8000,0.00881621
533.6000,0.00890844
533.4000,0.00899995
533.2000,0.00909666
533.0000,0.00919676
532.8000,0.00929824
532.6000,0.00940259
532.4000,0.00951237
532.2000,0.00961576
532.0000,0.0097213
531.8000,0.00982994
531.6000,0.00993679
531.4000,0.0100386
531.2000,0.0101418
531.0000,0.0102421
530.8000,0.010343
530.6000,0.0104432
530.4000,0.0105435
530.2000,0.0106434
530.0000,0.0107481
529.8000,0.0108498
529.6000,0.010947
529.4000,0.0110467
529.2000,0.0111451
529.0000,0.0112445
528.8000,0.011345
528.6000,0.0114453
528.4000,0.0115449
528.2000,0.0116542
528.0000,0.0117595
527.8000,0.0118741
527.6000,0.0119905
527.4000,0.012115
527.2000,0.0122362
527.0000,0.0123589
526.8000,0.0124776
526.6000,0.012601
526.4000,0.012725
526.2000,0.0128475
526.0000,0.0129734
525.8000,0.0131052
525.6000,0.0132391
525.4000,0.013373
525.2000,0.0135095
525.0000,0.0136478
524.8000,0.0137942
524.6000,0.0139278
524.4000,0.0140662
524.2000,0.0141982
524.0000,0.0143371
523.8000,0.0144799
523.6000,0.0146225
523.4000,0.0147597
523.2000,0.0149073
523.0000,0.0150528
522.8000,0.0151988
522.6000,0.0153469
522.4000,0.0154893
522.2000,0.0156392
522.0000,0.0157896
521.8000,0.0159417
521.6000,0.0160872
521.4000,0.0162454
521.2000,0.0164057
521.0000,0.0165662
520.8000,0.0167303
520.6000,0.0168895
520.4000,0.0170521
520.2000,0.0172215
520.0000,0.0173898
519.8000,0.0175563
519.6000,0.0177275
519.4000,0.0178999
519.2000,0.0180766
519.0000,0.0182537
518.8000,0.0184289
518.6000,0.0186047
518.4000,0.0187851
518.2000,0.0189639
518.0000,0.0191401
517.8000,0.019323
517.6000,0.0194975
517.4000,0.0196817
517.2000,0.0198622
517.0000,0.0200433
516.8000,0.0202257
516.6000,0.0204175
516.4000,0.0206101
516.2000,0.0208003
516.0000,0.0209846
515.8000,0.0211682
515.6000,0.021359
515.4000,0.0215487
515.2000,0.0217444
515.0000,0.0219386
514.8000,0.0221328
514.6000,0.0223235
514.4000,0.0225218
514.2000,0.0227217
514.0000,0.0229291
513.8000,0.0231365
513.6000,0.0233502
513.4000,0.0235572
513.2000,0.023766
513.0000,0.0239786
512.8000,0.0242018
512.6000,0.0244283
512.4000,0.02466
512.2000,0.0248908
512.0000,0.0251163
511.8000,0.0253492
511.6000,0.0255862
511.4000,0.0258261
511.2000,0.0260633
511.0000,0.0262992
510.8000,0.0265383
510.6000,0.0267789
510.4000,0.027016
510.2000,0.0272632
510.0000,0.027515
509.8000,0.0277588
509.6000,0.0280117
509.4000,0.0282601
509.2000,0.0285005
509.0000,0.0287496
508.8000,0.0290073
508.6000,0.0292659
508.4000,0.0295257
508.2000,0.0297896
508.0000,0.0300552
507.8000,0.030324
507.6000,0.0305949
507.4000,0.0308664
507.2000,0.0311413
507.0000,0.0314103
506.8000,0.03168
506.6000,0.0319606
506.4000,0.0322334
506.2000,0.0325063
506.0000,0.0327869
505.8000,0.0330705
505.6000,0.0333495
505.4000,0.0336311
505.2000,0.033918
505.0000,0.0342021
504.8000,0.0344922
504.6000,0.0347822
504.4000,0.0350781
504.2000,0.035373
504.0000,0.035666
503.8000,0.0359696
503.6000,0.0362724
503.4000,0.0365776
503.2000,0.0368842
503.0000,0.0371962
502.8000,0.0375066
502.6000,0.0378139
502.4000,0.0381261
502.2000,0.0384358
502.0000,0.0387502
501.8000,0.0390677
501.6000,0.0393868
501.4000,0.0397067
501.2000,0.040023
501.0000,0.0403468
500.8000,0.0406756
500.6000,0.0409978
500.4000,0.0413205
500.2000,0.0416472
500.0000,0.0422783
499.8000,0.0426148
499.6000,0.0429521
499.4000,0.0432891
499.2000,0.043631
499.0000,0.0439663
498.8000,0.0443023
498.6000,0.0446517
498.4000,0.0450038
498.2000,0.0453523
498.0000,0.0457006
497.8000,0.0460467
497.6000,0.0464093
497.4000,0.0467631
497.2000,0.0471308
497.0000,0.0474888
496.8000,0.0478488
496.6000,0.0482142
496.4000,0.0485841
496.2000,0.0489526
496.0000,0.0493247
495.8000,0.0496959
495.6000,0.0500782
495.4000,0.0504498
495.2000,0.0508188
495.0000,0.0511943
494.8000,0.0515737
494.6000,0.0519625
494.4000,0.0523392
494.2000,0.0527341
494.0000,0.0531116
493.8000,0.0534921
493.6000,0.0538858
493.4000,0.0542781
493.2000,0.054674
493.0000,0.0550773
492.8000,0.055483
492.6000,0.0558906
492.4000,0.0563003
492.2000,0.056716
492.0000,0.0571326
491.8000,0.057551
491.6000,0.0579636
491.4000,0.0583776
491.2000,0.0588017
491.0000,0.0592162
490.8000,0.0596421
490.6000,0.0600693
490.4000,0.0604928
490.2000,0.0609196
490.0000,0.0613414
489.8000,0.0617706
489.6000,0.0622063
489.4000,0.0626377
489.2000,0.0630644
489.0000,0.0634904
488.8000,0.0639251
488.6000,0.0643672
488.4000,0.0648135
488.2000,0.0652549
488.0000,0.0656945
487.8000,0.0661387
487.6000,0.066583
487.4000,0.0670367
487.2000,0.067491
487.0000,0.0679397
486.8000,0.0683986
486.6000,0.0688493
486.4000,0.0692957
486.2000,0.0697422
486.0000,0.0701968
485.8000,0.0706621
485.6000,0.0711207
485.4000,0.0715757
485.2000,0.0720334
485.0000,0.0724969
484.8000,0.0729574
484.6000,0.0734266
484.4000,0.0738936
484.2000,0.0743591
484.0000,0.0748223
483.8000,0.0752941
483.6000,0.0757686
483.4000,0.0762421
483.2000,0.0767217
483.0000,0.0772076
482.8000,0.0776886
482.6000,0.0781558
482.4000,0.0786386
482.2000,0.079126
482.0000,0.079611
481.8000,0.0800964
481.6000,0.0805866
481.4000,0.0810712
481.2000,0.081558
481.0000,0.0820466
480.8000,0.082532
480.6000,0.0830119
480.4000,0.0834964
480.2000,0.0839816
480.0000,0.0844703
479.8000,0.0849581
479.6000,0.0854461
479.4000,0.0859433
479.2000,0.0864319
479.0000,0.0869155
478.8000,0.0874031
478.6000,0.0878994
478.4000,0.0883877
478.2000,0.0888788
478.0000,0.0893801
477.8000,0.0898789
477.6000,0.090377
477.4000,0.0908871
477.2000,0.0913866
477.0000,0.0918874
476.8000,0.0923849
476.6000,0.092885
476.4000,0.0933878
476.2000,0.0938832
476.0000,0.0943804
475.8000,0.0948741
475.6000,0.0953763
475.4000,0.0958756
475.2000,0.0963761
475.0000,0.0968756
474.8000,0.097358
474.6000,0.0978521
474.4000,0.0983581
474.2000,0.0988502
474.0000,0.0993399
473.8000,0.0998354
473.6000,0.100328
473.4000,0.100818
473.2000,0.10132
473.0000,0.101822
472.8000,0.102325
472.6000,0.10283
472.4000,0.103317
472.2000,0.103811
472.0000,0.1043
471.8000,0.104797
471.6000,0.105304
471.4000,0.105801
471.2000,0.106291
471.0000,0.106789
470.8000,0.107293
470.6000,0.107783
470.4000,0.108279
470.2000,0.108768
470.0000,0.109249
469.8000,0.109734
469.6000,0.110217
469.4000,0.110701
469.2000,0.111196
469.0000,0.11168
468.8000,0.112168
468.6000,0.112651
468.4000,0.113134
468.2000,0.113611
468.0000,0.114081
467.8000,0.114552
467.6000,0.115017
467.4000,0.115488
467.2000,0.115945
467.0000,0.116425
466.8000,0.116893
466.6000,0.117359
466.4000,0.117817
466.2000,0.118282
466.0000,0.118734
465.8000,0.119197
465.6000,0.119656
465.4000,0.120109
465.2000,0.120558
465.0000,0.121013
464.8000,0.121466
464.6000,0.121912
464.4000,0.122358
464.2000,0.122808
464.0000,0.123258
463.8000,0.123688
463.6000,0.124122
463.4000,0.124557
463.2000,0.124989
463.0000,0.125426
462.8000,0.125854
462.6000,0.126278
462.4000,0.126701
462.2000,0.127112
462.0000,0.127528
461.8000,0.12794
461.6000,0.128345
461.4000,0.128757
461.2000,0.129172
461.0000,0.129574
460.8000,0.129972
460.6000,0.130369
460.4000,0.130762
460.2000,0.131154
460.0000,0.131536
459.8000,0.131913
459.6000,0.132299
459.4000,0.132668
459.2000,0.133036
459.0000,0.133413
458.8000,0.133784
458.6000,0.134154
458.4000,0.134516
458.2000,0.134858
458.0000,0.135213
457.8000,0.135559
457.6000,0.135905
457.4000,0.136245
457.2000,0.136593
457.0000,0.136916
456.8000,0.137257
456.6000,0.137569
456.4000,0.137893
456.2000,0.138209
456.0000,0.138523
455.8000,0.138833
455.6000,0.139125
455.4000,0.139413
455.2000,0.139705
455.0000,0.140006
454.8000,0.140285
454.6000,0.140561
454.4000,0.140836
454.2000,0.14111
454.0000,0.141375
453.8000,0.141644
453.6000,0.14189
453.4000,0.142151
453.2000,0.14239
453.0000,0.142644
452.8000,0.142892
452.6000,0.14313
452.4000,0.143362
452.2000,0.143593
452.0000,0.143819
451.8000,0.144037
451.6000,0.144243
451.4000,0.144446
451.2000,0.144646
451.0000,0.144848
450.8000,0.14503
450.6000,0.145212
450.4000,0.145402
450.2000,0.145574
450.0000,0.145747
449.8000,0.145899
449.6000,0.146048
449.4000,0.146191
449.2000,0.146346
449.0000,0.146482
448.8000,0.146617
448.6000,0.146749
448.4000,0.14687
448.2000,0.146995
448.0000,0.147115
447.8000,0.14722
447.6000,0.147324
447.4000,0.147425
447.2000,0.147507
447.0000,0.147594
446.8000,0.147676
446.6000,0.147763
446.4000,0.147829
446.2000,0.147895
446.0000,0.14795
445.8000,0.148004
445.6000,0.148053
445.4000,0.14809
445.2000,0.148136
445.0000,0.14817
444.8000,0.148205
444.6000,0.148228
444.4000,0.148251
444.2000,0.14826
444.0000,0.148276
443.8000,0.148282
443.6000,0.148272
443.4000,0.148265
443.2000,0.148255
443.0000,0.148233
442.8000,0.148193
442.6000,0.148158
442.4000,0.14811
442.2000,0.148051
442.0000,0.14799
441.8000,0.147937
441.6000,0.147845
441.4000,0.147774
441.2000,0.147691
441.0000,0.147617
440.8000,0.14752
440.6000,0.147425
440.4000,0.147321
440.2000,0.147199
440.0000,0.14708
439.8000,0.146947
439.6000,0.146829
439.4000,0.146699
439.2000,0.146571
439.0000,0.146432
438.8000,0.146284
438.6000,0.146135
438.4000,0.14598
438.2000,0.145797
438.0000,0.145607
437.8000,0.145422
437.6000,0.145239
437.4000,0.145043
437.2000,0.144849
437.0000,0.144643
436.8000,0.144419
436.6000,0.144206
436.4000,0.143993
436.2000,0.143761
436.0000,0.143519
435.8000,0.143287
435.6000,0.143033
435.4000,0.142764
435.2000,0.142513
435.0000,0.142248
434.8000,0.141988
434.6000,0.141706
434.4000,0.141429
434.2000,0.141144
434.0000,0.140864
433.8000,0.140576
433.6000,0.140282
433.4000,0.139973
433.2000,0.139644
433.0000,0.139317
432.8000,0.138988
432.6000,0.138661
432.4000,0.138343
432.2000,0.138016
432.0000,0.13767
431.8000,0.137343
431.6000,0.13701
431.4000,0.136656
431.2000,0.136284
431.0000,0.135917
430.8000,0.135531
430.6000,0.135146
430.4000,0.134773
430.2000,0.134406
430.0000,0.134017
429.8000,0.133629
429.6000,0.133235
429.4000,0.132831
429.2000,0.132413
429.0000,0.13198
428.8000,0.131566
428.6000,0.131141
428.4000,0.130708
428.2000,0.130282
428.0000,0.129863
427.8000,0.129439
427.6000,0.12901
427.4000,0.128582
427.2000,0.128145
427.0000,0.127702
426.8000,0.127256
426.6000,0.126826
426.4000,0.126364
426.2000,0.125897
426.0000,0.125461
425.8000,0.125012
425.6000,0.124548
425.4000,0.124071
425.2000,0.123595
425.0000,0.123116
424.8000,0.122636
424.6000,0.122162
424.4000,0.121692
424.2000,0.121186
424.0000,0.12069
423.8000,0.120197
423.6000,0.119719
423.4000,0.119211
423.2000,0.118718
423.0000,0.118238
422.8000,0.117707
422.6000,0.117196
422.4000,0.116693
422.2000,0.116207
422.0000,0.115704
421.8000,0.115192
421.6000,0.114678
421.4000,0.114163
421.2000,0.113637
421.0000,0.113178
420.8000,0.112748
420.6000,0.112331
420.4000,0.111899
420.2000,0.111424
420.0000,0.110996
419.8000,0.110552
419.6000,0.110113
419.4000,0.109714
419.2000,0.1093
419.0000,0.108874
418.8000,0.10847
418.6000,0.108077
418.4000,0.107589
418.2000,0.107026
418.0000,0.106462
417.8000,0.105843
417.6000,0.105171
417.4000,0.104477
417.2000,0.103791
417.0000,0.103169
416.8000,0.102485
416.6000,0.101825
416.4000,0.101175
416.2000,0.100477
416.0000,0.0997905
415.8000,0.0991131
415.6000,0.0984179
415.4000,0.097717
415.2000,0.0970958
415.0000,0.0965471
414.8000,0.0960098
414.6000,0.0954965
414.4000,0.0949908
414.2000,0.0944782
414.0000,0.0939786
413.8000,0.0934439
413.6000,0.0929451
413.4000,0.0924259
413.2000,0.0918782
413.0000,0.0913728
412.8000,0.0908733
412.6000,0.0903215
412.4000,0.0898136
412.2000,0.0893006
412.0000,0.0888336
411.8000,0.0883332
411.6000,0.0878779
411.4000,0.0874131
411.2000,0.0869581
411.0000,0.0865038
410.8000,0.0860391
410.6000,0.0856357
410.4000,0.0852322
410.2000,0.0848022
410.0000,0.0843948
409.8000,0.083996
409.6000,0.0835981
409.4000,0.0832176
409.2000,0.0828146
409.0000,0.0824218
408.8000,0.082036
408.6000,0.0817027
408.4000,0.0813274
408.2000,0.0809624
408.0000,0.0806061
407.8000,0.0802598
407.6000,0.0799519
407.4000,0.0795796
407.2000,0.0792317
407.0000,0.0789124
406.8000,0.078626
406.6000,0.0782387
406.4000,0.0778975
406.2000,0.0776118
406.0000,0.0773648
405.8000,0.0770803
405.6000,0.0768231
405.4000,0.0765973
405.2000,0.0763492
405.0000,0.0760992
404.8000,0.0758724
404.6000,0.0756681
404.4000,0.0754429
404.2000,0.0753069
404.0000,0.0751145
403.8000,0.0749514
403.6000,0.0748079
403.4000,0.0747252
403.2000,0.0746198
403.0000,0.0744822
402.8000,0.07439
402.6000,0.0743249
402.4000,0.0742252
402.2000,0.0740989
402.0000,0.074006
401.8000,0.0739525
401.6000,0.0739181
401.4000,0.0739103
401.2000,0.0739214
401.0000,0.0739533
400.8000,0.0740355
400.6000,0.0740721
400.4000,0.0741517
400.2000,0.0742361
400.0000,0.0695647
399.8000,0.0695972
399.6000,0.0696501
399.4000,0.0697175
399.2000,0.0697749
399.0000,0.0698554
398.8000,0.0699593
398.6000,0.0700581
398.4000,0.0701864
398.2000,0.0703594
398.0000,0.0705125
397.8000,0.0707135
397.6000,0.0708981
397.4000,0.0711017
397.2000,0.0713168
397.0000,0.0715633
396.8000,0.0718167
396.6000,0.0720912
396.4000,0.072373
396.2000,0.0726887
396.0000,0.0730267
395.8000,0.0733649
395.6000,0.0737256
395.4000,0.0741183
395.2000,0.0745361
395.0000,0.0749295
394.8000,0.075396
394.6000,0.0758524
394.4000,0.0763525
394.2000,0.0768781
394.0000,0.0774409
393.8000,0.0780033
393.6000,0.0785872
393.4000,0.0792055
393.2000,0.0798406
393.0000,0.0805042
392.8000,0.081175
392.6000,0.081871
392.4000,0.0826019
392.2000,0.0833796
392.0000,0.0841486
391.8000,0.0849659
391.6000,0.0858036
391.4000,0.0866342
391.2000,0.0875182
391.0000,0.0884167
390.8000,0.0892968
390.6000,0.0902138
390.4000,0.0911803
390.2000,0.0921459
390.0000,0.09316
389.8000,0.0941772
389.6000,0.0952225
389.4000,0.096285
389.2000,0.0973547
389.0000,0.0984485
388.8000,0.0995928
388.6000,0.10075
388.4000,0.101884
388.2000,0.103071
388.0000,0.104263
387.8000,0.105483
387.6000,0.106759
387.4000,0.108051
387.2000,0.109355
387.0000,0.110693
386.8000,0.112035
386.6000,0.113409
386.4000,0.114818
386.2000,0.116288
386.0000,0.117741
385.8000,0.11921
385.6000,0.120679
385.4000,0.122178
385.2000,0.123743
385.0000,0.125286
384.8000,0.126888
384.6000,0.128497
384.4000,0.130129
384.2000,0.131787
384.0000,0.133445
383.8000,0.135124
383.6000,0.136832
383.4000,0.138557
383.2000,0.140309
383.0000,0.142044
382.8000,0.14381
382.6000,0.145622
382.4000,0.14745
382.2000,0.149289
382.0000,0.151122
381.8000,0.153015
381.6000,0.154866
381.4000,0.156713
381.2000,0.158574
381.0000,0.160487
380.8000,0.162376
380.6000,0.16428
380.4000,0.166168
380.2000,0.168098
380.0000,0.170012
379.8000,0.171936
379.6000,0.173885
379.4000,0.175788
379.2000,0.177705
379.0000,0.179642
378.8000,0.181549
378.6000,0.183461
378.4000,0.185395
378.2000,0.187337
378.0000,0.189233
377.8000,0.191108
377.6000,0.193044
377.4000,0.194963
377.2000,0.196883
377.0000,0.198764
376.8000,0.200646
376.6000,0.202521
376.4000,0.204383
376.2000,0.206235
376.0000,0.208107
375.8000,0.20994
375.6000,0.211795
375.4000,0.213625
375.2000,0.215468
375.0000,0.217298
374.8000,0.219137
374.6000,0.220942
374.4000,0.222729
374.2000,0.224515
374.0000,0.226245
373.8000,0.227993
373.6000,0.229708
373.4000,0.231432
373.2000,0.233163
373.0000,0.23489
372.8000,0.236581
372.6000,0.23828
372.4000,0.239947
372.2000,0.241582
372.0000,0.243174
371.8000,0.244766
371.6000,0.246385
371.4000,0.247966
371.2000,0.249547
371.0000,0.251076
370.8000,0.252687
370.6000,0.254255
370.4000,0.255857
370.2000,0.257408
370.0000,0.261669
369.8000,0.263152
369.6000,0.26458
369.4000,0.26599
369.2000,0.267425
369.0000,0.268811
368.8000,0.270236
368.6000,0.271602
368.4000,0.27304
368.2000,0.274479
368.0000,0.275881
367.8000,0.27725
367.6000,0.278712
367.4000,0.280151
367.2000,0.281546
367.0000,0.282877
366.8000,0.284168
366.6000,0.285529
366.4000,0.286887
366.2000,0.288236
366.0000,0.289616
365.8000,0.291003
365.6000,0.292392
365.4000,0.293784
365.2000,0.295137
365.0000,0.296525
364.8000,0.297933
364.6000,0.299366
364.4000,0.300765
364.2000,0.302167
364.0000,0.303593
363.8000,0.305028
363.6000,0.306534
363.4000,0.307981
363.2000,0.309429
363.0000,0.310861
362.8000,0.31227
362.6000,0.313739
362.4000,0.315198
362.2000,0.316674
362.0000,0.318163
361.8000,0.319644
361.6000,0.321146
361.4000,0.322614
361.2000,0.324071
361.0000,0.325568
360.8000,0.327068
360.6000,0.328561
360.4000,0.330025
360.2000,0.331503
360.0000,0.332983
359.8000,0.334486
359.6000,0.336005
359.4000,0.337476
359.2000,0.338957
359.0000,0.340431
358.8000,0.341909
358.6000,0.34335
358.4000,0.344813
358.2000,0.346236
358.0000,0.347687
357.8000,0.349119
357.6000,0.350552
357.4000,0.352012
357.2000,0.353475
357.0000,0.354862
356.8000,0.356289
356.6000,0.357657
356.4000,0.359041
356.2000,0.360412
356.0000,0.361741
355.8000,0.363151
355.6000,0.364498
355.4000,0.365819
355.2000,0.367126
355.0000,0.368449
354.8000,0.369748
354.6000,0.371031
354.4000,0.372318
354.2000,0.373615
354.0000,0.374824
353.8000,0.376099
353.6000,0.377319
353.4000,0.378581
353.2000,0.379799
353.0000,0.380969
352.8000,0.382163
352.6000,0.383302
352.4000,0.384445
352.2000,0.385611
352.0000,0.386727
351.8000,0.387888
351.6000,0.389032
351.4000,0.390118
351.2000,0.391189
351.0000,0.392175
350.8000,0.393205
350.6000,0.394225
350.4000,0.395235
350.2000,0.396259
350.0000,0.397288
349.8000,0.39834
349.6000,0.399351
349.4000,0.400352
349.2000,0.401339
349.0000,0.402355
348.8000,0.403315
348.6000,0.404233
348.4000,0.405203
348.2000,0.406206
348.0000,0.407172
347.8000,0.408184
347.6000,0.4092
347.4000,0.410125
347.2000,0.411136
347.0000,0.412142
346.8000,0.413119
346.6000,0.414113
346.4000,0.415143
346.2000,0.416155
346.0000,0.41718
345.8000,0.418192
345.6000,0.419265
345.4000,0.420379
345.2000,0.421443
345.0000,0.422552
344.8000,0.423678
344.6000,0.424803
344.4000,0.425892
344.2000,0.427047
344.0000,0.428211
343.8000,0.429333
343.6000,0.430431
343.4000,0.431598
343.2000,0.43276
343.0000,0.433932
342.8000,0.435123
342.6000,0.436297
342.4000,0.437551
342.2000,0.438768
342.0000,0.439951
341.8000,0.441099
341.6000,0.44234
341.4000,0.443565
341.2000,0.444859
341.0000,0.446174
340.8000,0.447414
340.6000,0.448695
340.4000,0.450026
340.2000,0.451255
340.0000,0.450036
339.8000,0.451293
339.6000,0.452567
339.4000,0.453786
339.2000,0.455108
339.0000,0.456386
338.8000,0.457671
338.6000,0.458989
338.4000,0.460148
338.2000,0.46144
338.0000,0.462698
337.8000,0.463859
337.6000,0.465081
337.4000,0.466287
337.2000,0.467557
337.0000,0.468814
336.8000,0.470019
336.6000,0.471257
336.4000,0.472463
336.2000,0.473648
336.0000,0.474769
335.8000,0.475906
335.6000,0.477071
335.4000,0.478262
335.2000,0.479544
335.0000,0.480607
334.8000,0.481754
334.6000,0.482925
334.4000,0.484042
334.2000,0.485156
334.0000,0.486229
333.8000,0.4873
333.6000,0.488304
333.4000,0.489362
333.2000,0.490446
333.0000,0.491445
332.8000,0.492421
332.6000,0.493455
332.4000,0.49442
332.2000,0.495405
332.0000,0.496349
331.8000,0.497382
331.6000,0.498312
331.4000,0.499257
331.2000,0.50015
331.0000,0.501023
330.8000,0.501867
330.6000,0.50271
330.4000,0.503601
330.2000,0.504451
330.0000,0.505295
329.8000,0.506127
329.6000,0.507055
329.4000,0.507792
329.2000,0.508656
329.0000,0.509379
328.8000,0.5102
328.6000,0.510979
328.4000,0.511805
328.2000,0.51261
328.0000,0.513391
327.8000,0.51412
327.6000,0.514987
327.4000,0.515806
327.2000,0.516512
327.0000,0.517174
326.8000,0.51788
326.6000,0.518587
326.4000,0.519317
326.2000,0.520026
326.0000,0.520697
325.8000,0.521476
325.6000,0.52212
325.4000,0.522748
325.2000,0.523342
325.0000,0.523861
324.8000,0.5245
324.6000,0.525208
324.4000,0.525767
324.2000,0.526328
324.0000,0.526942
323.8000,0.527552
323.6000,0.528118
323.4000,0.528714
323.2000,0.529188
323.0000,0.529758
322.8000,0.530248
322.6000,0.530666
322.4000,0.531034
322.2000,0.53148
322.0000,0.531915
321.8000,0.532405
321.6000,0.53274
321.4000,0.533072
321.2000,0.533424
321.0000,0.533726
320.8000,0.534
320.6000,0.53431
320.4000,0.534533
320.2000,0.534698
320.0000,0.534945
319.8000,0.535086
319.6000,0.535273
319.4000,0.535436
319.2000,0.535688
319.0000,0.535835
318.8000,0.535973
318.6000,0.536048
318.4000,0.536187
318.2000,0.536244
318.0000,0.536184
317.8000,0.536219
317.6000,0.536312
317.4000,0.536318
317.2000,0.536338
317.0000,0.536329
316.8000,0.536272
316.6000,0.536131
316.4000,0.536022
316.2000,0.53593
316.0000,0.535761
315.8000,0.535651
315.6000,0.535454
315.4000,0.535236
315.2000,0.535001
315.0000,0.534839
314.8000,0.534699
314.6000,0.534514
314.4000,0.534189
314.2000,0.533872
314.0000,0.533517
313.8000,0.533277
313.6000,0.532966
313.4000,0.532682
313.2000,0.532422
313.0000,0.531987
312.8000,0.531577
312.6000,0.531154
312.4000,0.530723
312.2000,0.530345
312.0000,0.529825
311.8000,0.529196
311.6000,0.528717
311.4000,0.52811
311.2000,0.527496
311.0000,0.526889
310.8000,0.52637
310.6000,0.525624
310.4000,0.52493
310.2000,0.524289
310.0000,0.523513
309.8000,0.522877
309.6000,0.522197
309.4000,0.521436
309.2000,0.520661
309.0000,0.519872
308.8000,0.519125
308.6000,0.518351
308.4000,0.51744
308.2000,0.516585
308.0000,0.515716
307.8000,0.514839
307.6000,0.513905
307.4000,0.513105
307.2000,0.512199
307.0000,0.511299
306.8000,0.510392
306.6000,0.509356
306.4000,0.508385
306.2000,0.507363
306.0000,0.506403
305.8000,0.505377
305.6000,0.504306
305.4000,0.503276
305.2000,0.502185
305.0000,0.501126
304.8000,0.500082
304.6000,0.499016
304.4000,0.497906
304.2000,0.496769
304.0000,0.495637
303.8000,0.494425
303.6000,0.493193
303.4000,0.492057
303.2000,0.490832
303.0000,0.48962
302.8000,0.488409
302.6000,0.487194
302.4000,0.486054
302.2000,0.484825
302.0000,0.48362
301.8000,0.482353
301.6000,0.481087
301.4000,0.479761
301.2000,0.478512
301.0000,0.477189
300.8000,0.475922
300.6000,0.474664
300.4000,0.473395
300.2000,0.472095
300.0000,0.470801
299.8000,0.469532
299.6000,0.46829
299.4000,0.46703
299.2000,0.465732
299.0000,0.464547
298.8000,0.463331
298.6000,0.462132
298.4000,0.460905
298.2000,0.459791
298.0000,0.458546
297.8000,0.457356
297.6000,0.456157
297.4000,0.45498
297.2000,0.453811
297.0000,0.452692
296.8000,0.451579
296.6000,0.45037
296.4000,0.449241
296.2000,0.44809
296.0000,0.446968
295.8000,0.44589
295.6000,0.44476
295.4000,0.443641
295.2000,0.442577
295.0000,0.441434
294.8000,0.440381
294.6000,0.43929
294.4000,0.438205
294.2000,0.437149
294.0000,0.436108
293.8000,0.435018
293.6000,0.433966
293.4000,0.433008
293.2000,0.431951
293.0000,0.430967
292.8000,0.429945
292.6000,0.428834
292.4000,0.427837
292.2000,0.426809
292.0000,0.425758
291.8000,0.424712
291.6000,0.423672
291.4000,0.422601
291.2000,0.421619
291.0000,0.420599
290.8000,0.419603
290.6000,0.41856
290.4000,0.417497
290.2000,0.416418
290.0000,0.415306
289.8000,0.414195
289.6000,0.413108
289.4000,0.412031
289.2000,0.410916
289.0000,0.409854
288.8000,0.408681
288.6000,0.407579
288.4000,0.406444
288.2000,0.405339
288.0000,0.404141
287.8000,0.403023
287.6000,0.401802
287.4000,0.400633
287.2000,0.399455
287.0000,0.398211
286.8000,0.396978
286.6000,0.395704
286.4000,0.394422
286.2000,0.393091
286.0000,0.39179
285.8000,0.390404
285.6000,0.389137
285.4000,0.387827
285.2000,0.386511
285.0000,0.38518
284.8000,0.383822
284.6000,0.382382
284.4000,0.381079
284.2000,0.379719
284.0000,0.378331
283.8000,0.377014
283.6000,0.375736
283.4000,0.374379
283.2000,0.372972
283.0000,0.371662
282.8000,0.37033
282.6000,0.369046
282.4000,0.367774
282.2000,0.366502
282.0000,0.365235
281.8000,0.364037
281.6000,0.362879
281.4000,0.361718
281.2000,0.360515
281.0000,0.359368
280.8000,0.358292
280.6000,0.357276
280.4000,0.356235
280.2000,0.355278
280.0000,0.354437
279.8000,0.353555
279.6000,0.35281
279.4000,0.35205
279.2000,0.351317
279.0000,0.350643
278.8000,0.350011
278.6000,0.349461
278.4000,0.349005
278.2000,0.348538
278.0000,0.348232
277.8000,0.348013
277.6000,0.347897
277.4000,0.347811
277.2000,0.34774
277.0000,0.347758
276.8000,0.347887
276.6000,0.348107
276.4000,0.348352
276.2000,0.348751
276.0000,0.349279
275.8000,0.349879
275.6000,0.350656
275.4000,0.351443
275.2000,0.35233
275.0000,0.35341
274.8000,0.354501
274.6000,0.355683
274.4000,0.356939
274.2000,0.358383
274.0000,0.360007
273.8000,0.361803
273.6000,0.363627
273.4000,0.365586
273.2000,0.367641
273.0000,0.369848
272.8000,0.372137
272.6000,0.374531
272.4000,0.377
272.2000,0.379634
272.0000,0.382398
271.8000,0.385229
271.6000,0.388168
271.4000,0.391288
271.2000,0.394474
271.0000,0.397732
270.8000,0.401071
270.6000,0.404479
270.4000,0.408017
270.2000,0.411644
270.0000,0.415334
269.8000,0.419185
269.6000,0.423106
269.4000,0.427065
269.2000,0.43115
269.0000,0.435292
268.8000,0.439428
268.6000,0.44367
268.4000,0.448027
268.2000,0.452362
268.0000,0.456773
267.8000,0.461175
267.6000,0.465647
267.4000,0.470177
267.2000,0.474724
267.0000,0.479291
266.8000,0.483907
266.6000,0.488456
266.4000,0.493033
266.2000,0.49768
266.0000,0.502279
265.8000,0.506881
265.6000,0.511535
265.4000,0.516147
265.2000,0.520742
265.0000,0.525341
264.8000,0.529905
264.6000,0.534496
264.4000,0.539068
264.2000,0.543618
264.0000,0.548168
263.8000,0.552754
263.6000,0.557237
263.4000,0.561696
263.2000,0.566125
263.0000,0.570535
262.8000,0.574951
262.6000,0.57932
262.4000,0.583647
262.2000,0.587955
262.0000,0.592211
261.8000,0.596437
261.6000,0.600626
261.4000,0.604751
261.2000,0.608833
261.0000,0.612842
260.8000,0.616802
260.6000,0.620693
260.4000,0.624575
260.2000,0.628408
260.0000,0.632163
259.8000,0.635851
259.6000,0.639434
259.4000,0.64298
259.2000,0.646454
259.0000,0.649897
258.8000,0.653261
258.6000,0.656555
258.4000,0.659837
258.2000,0.663048
258.0000,0.666196
257.8000,0.669282
257.6000,0.672266
257.4000,0.675174
257.2000,0.678059
257.0000,0.68088
256.8000,0.683686
256.6000,0.686414
256.4000,0.689116
256.2000,0.691769
256.0000,0.69435
255.8000,0.696832
255.6000,0.699319
255.4000,0.701721
255.2000,0.704083
255.0000,0.706385
254.8000,0.708616
254.6000,0.710814
254.4000,0.713006
254.2000,0.715078
254.0000,0.717134
253.8000,0.719117
253.6000,0.721064
253.4000,0.722947
253.2000,0.724768
253.0000,0.726571
252.8000,0.728315
252.6000,0.72998
252.4000,0.731595
252.2000,0.733139
252.0000,0.734549
251.8000,0.735927
251.6000,0.737227
251.4000,0.738406
251.2000,0.739525
251.0000,0.7406
250.8000,0.741537
250.6000,0.742481
250.4000,0.743272
250.2000,0.743975
250.0000,0.744608
249.8000,0.74509
249.6000,0.745505
249.4000,0.745859
249.2000,0.746119
249.0000,0.74626
248.8000,0.746336
248.6000,0.746311
248.4000,0.746271
248.2000,0.746129
248.0000,0.74591
247.8000,0.745593
247.6000,0.745211
247.4000,0.744665
247.2000,0.744045
247.0000,0.743404
246.8000,0.742697
246.6000,0.741935
246.4000,0.741076
246.2000,0.740184
246.0000,0.739104
245.8000,0.738021
245.6000,0.736809
245.4000,0.735451
245.2000,0.734023
245.0000,0.732459
244.8000,0.730719
244.6000,0.728813
244.4000,0.72676
244.2000,0.724434
244.0000,0.72207
243.8000,0.719336
243.6000,0.716312
243.4000,0.712955
243.2000,0.709298
243.0000,0.705115
242.8000,0.700733
242.6000,0.696003
242.4000,0.691111
242.2000,0.685504
242.0000,0.679372
241.8000,0.673255
241.6000,0.666547
241.4000,0.660135
241.2000,0.65317
241.0000,0.646367
240.8000,0.638981
240.6000,0.632708
240.4000,0.625866
240.2000,0.619508
240.0000,0.613327
239.8000,0.608011
239.6000,0.602853
239.4000,0.598085
239.2000,0.59437
239.0000,0.591245
238.8000,0.588588
238.6000,0.585869
238.4000,0.583947
238.2000,0.581981
238.0000,0.580463
237.8000,0.579621
237.6000,0.578506
237.4000,0.576843
237.2000,0.576341
237.0000,0.576146
236.8000,0.575486
236.6000,0.575135
236.4000,0.575364
236.2000,0.575216
236.0000,0.574638
235.8000,0.574489
235.6000,0.574753
235.4000,0.574746
235.2000,0.574847
235.0000,0.574694
234.8000,0.574605
234.6000,0.574431
234.4000,0.574452
234.2000,0.574558
234.0000,0.574242
233.8000,0.574056
233.6000,0.574374
233.4000,0.574446
233.2000,0.573853
233.0000,0.57391
232.8000,0.573323
232.6000,0.572963
232.4000,0.572722
232.2000,0.572904
232.0000,0.572894
231.8000,0.573214
231.6000,0.573516
231.4000,0.572657
231.2000,0.57244
231.0000,0.572385
230.8000,0.572432
230.6000,0.572768
230.4000,0.572378
230.2000,0.572357
230.0000,0.572389
229.8000,0.572217
229.6000,0.572859
229.4000,0.573069
229.2000,0.572986
229.0000,0.572605
228.8000,0.572571
228.6000,0.572112
228.4000,0.571792
228.2000,0.572563
228.0000,0.573139
227.8000,0.57304
227.6000,0.573185
227.4000,0.573061
227.2000,0.573259
227.0000,0.573893
226.8000,0.574617
226.6000,0.574958
226.4000,0.574791
226.2000,0.575563
226.0000,0.575188
225.8000,0.57506
225.6000,0.574791
225.4000,0.574732
225.2000,0.574983
225.0000,0.574934
224.8000,0.575012
224.6000,0.575465
224.4000,0.576004
224.2000,0.575881
224.0000,0.576199
223.8000,0.575894
223.6000,0.575278
223.4000,0.574635
223.2000,0.57474
223.0000,0.574546
222.8000,0.574896
222.6000,0.575347
222.4000,0.575156
222.2000,0.575177
222.0000,0.575342
221.8000,0.575576
221.6000,0.575583
221.4000,0.575838
221.2000,0.575948
221.0000,0.575814
220.8000,0.575711
220.6000,0.575668
220.4000,0.575842
220.2000,0.576436
220.0000,0.576148
219.8000,0.576054
219.6000,0.576479
219.4000,0.576091
219.2000,0.576454
219.0000,0.576312
218.8000,0.576408
218.6000,0.576652
218.4000,0.576123
218.2000,0.575452
218.0000,0.575143
217.8000,0.575008
217.6000,0.574682
217.4000,0.57405
217.2000,0.573584
217.0000,0.573619
216.8000,0.573397
216.6000,0.573824
216.4000,0.57351
216.2000,0.573615
216.0000,0.573537
215.8000,0.573777
215.6000,0.573393
215.4000,0.572645
215.2000,0.573205
215.0000,0.573431
214.8000,0.573303
214.6000,0.57309
214.4000,0.573873
214.2000,0.574291
214.0000,0.57472
213.8000,0.574344
213.6000,0.574582
213.4000,0.573819
213.2000,0.57363
213.0000,0.573204
212.8000,0.573394
212.6000,0.573971
212.4000,0.574046
212.2000,0.57386
212.0000,0.573467
211.8000,0.572705
211.6000,0.572462
211.4000,0.572348
211.2000,0.571677
211.0000,0.571713
210.8000,0.571627
210.6000,0.572021
210.4000,0.572133
210.2000,0.572496
210.0000,0.572363
209.8000,0.572483
209.6000,0.572049
209.4000,0.571439
209.2000,0.571187
209.0000,0.571718
208.8000,0.572045
208.6000,0.572479
208.4000,0.572851
208.2000,0.573104
208.0000,0.573314
207.8000,0.573397
207.6000,0.573544
207.4000,0.573015
207.2000,0.572416
207.0000,0.572245
206.8000,0.572483
206.6000,0.57278
206.4000,0.572613
206.2000,0.572592
206.0000,0.572712
205.8000,0.572385
205.6000,0.572148
205.4000,0.572276
205.2000,0.57204
205.0000,0.57209
204.8000,0.571885
204.6000,0.57141
204.4000,0.571118
204.2000,0.571178
204.0000,0.571089
203.8000,0.570373
203.6000,0.569829
203.4000,0.569409
203.2000,0.569412
203.0000,0.568665
202.8000,0.568732
202.6000,0.56883
202.4000,0.568065
202.2000,0.567724
202.0000,0.566797
201.8000,0.565822
201.6000,0.565338
201.4000,0.565209
201.2000,0.564958
201.0000,0.564676
200.8000,0.564907
200.6000,0.565499
200.4000,0.565673
200.2000,0.565436
200.0000,0.565129

##### Extended Information
[Rg]
,c
Rg


,{ww

[f[^]
,2024/07/09 17:28

f[^^Cv,uf[^
,Wavelength [nm]
c,Abs
X^[g,800 nm
Gh,200 nm
f[^u,0.2 nm
f[^,3001    

[]
u,V-730
@,V-730
VA,C235561798

,2024/07/09 17:10

[h,Abs
,800 - 200 nm
f[^u,0.2 nm
oh,1.0 nm
X|X,0.96 sec
[h,A
x,200 nm/min
,340 nm
,D2/WI
tB^[,Xebv
,x[XC
J,1

