TITLE,c
DATA TYPE,ULTRAVIOLET SPECTRUM
ORIGIN,JASCO
OWNER,
DATE,24/07/09
TIME,17:34:04
SPECTROMETER/DATA SYSTEM,
LOCALE,1041
RESOLUTION,
DELTAX,-0.2
XUNITS,NANOMETERS
YUNITS,ABSORBANCE
FIRSTX,  800.0000
LASTX,  200.0000
NPOINTS,    3001
FIRSTY,     0.00071
MAXY,     0.74755
MINY,     0.00020
XYDATA
800.0000,0.000706479
799.8000,0.000702659
799.6000,0.000700331
799.4000,0.000701107
799.2000,0.000694719
799.0000,0.000686243
798.8000,0.000686243
798.6000,0.000684691
798.4000,0.000676274
798.2000,0.000668394
798.0000,0.000662067
797.8000,0.000656157
797.6000,0.000649531
797.4000,0.000643442
797.2000,0.000641054
797.0000,0.000640398
796.8000,0.00063807
796.6000,0.000639084
796.4000,0.000638846
796.2000,0.000643442
796.0000,0.000643203
795.8000,0.000648277
795.6000,0.000649292
795.4000,0.000652038
795.2000,0.000654903
795.0000,0.000659142
794.8000,0.000664992
794.6000,0.000666484
794.4000,0.000672991
794.2000,0.000683079
794.0000,0.000683258
793.8000,0.000679318
793.6000,0.000672991
793.4000,0.000667976
793.2000,0.00066541
793.0000,0.000657888
792.8000,0.000659977
792.6000,0.000655978
792.4000,0.000653471
792.2000,0.000652217
792.0000,0.000648457
791.8000,0.000645531
791.6000,0.000638786
791.4000,0.000634607
791.2000,0.000625355
791.0000,0.000612939
790.8000,0.000611506
790.6000,0.000613595
790.4000,0.000614252
790.2000,0.000613058
790.0000,0.000611804
789.8000,0.000608044
789.6000,0.00060488
789.4000,0.000600283
789.2000,0.000597955
789.0000,0.000595866
788.8000,0.000596164
788.6000,0.000592822
788.4000,0.000588225
788.2000,0.000590971
788.0000,0.000593956
787.8000,0.000595448
787.6000,0.000593359
787.4000,0.000594433
787.2000,0.000596582
787.0000,0.000598493
786.8000,0.000601239
786.6000,0.000608402
786.4000,0.000607208
786.2000,0.000608282
786.0000,0.000608103
785.8000,0.000606432
785.6000,0.000610252
785.4000,0.000610073
785.2000,0.000614073
785.0000,0.000615386
784.8000,0.0006127
784.6000,0.000609954
784.4000,0.000608521
784.2000,0.000603925
784.0000,0.000600642
783.8000,0.000597896
783.6000,0.000594135
783.4000,0.000588703
783.2000,0.000587867
783.0000,0.000583509
782.8000,0.000577182
782.6000,0.000577779
782.4000,0.00057354
782.2000,0.000573361
782.0000,0.000566855
781.8000,0.000562616
781.6000,0.000559274
781.4000,0.000558438
781.2000,0.00055993
781.0000,0.000560706
780.8000,0.000562616
780.6000,0.00056387
780.4000,0.000565183
780.2000,0.000570018
780.0000,0.000573361
779.8000,0.000580584
779.6000,0.000584584
779.4000,0.000583808
779.2000,0.000581659
779.0000,0.000576048
778.8000,0.000573958
778.6000,0.000568586
778.4000,0.000568944
778.2000,0.00056584
778.0000,0.000562557
777.8000,0.000554976
777.6000,0.000550618
777.4000,0.000544947
777.2000,0.000539097
777.0000,0.000529367
776.8000,0.000520831
776.6000,0.000513249
776.4000,0.000506743
776.2000,0.000501132
776.0000,0.000494147
775.8000,0.000492536
775.6000,0.000490685
775.4000,0.00048967
775.2000,0.000488894
775.0000,0.000492536
774.8000,0.000489969
774.6000,0.000492595
774.4000,0.000490685
774.2000,0.00048776
774.0000,0.000488059
773.8000,0.000487163
773.6000,0.000490804
773.4000,0.000495401
773.2000,0.000505728
773.0000,0.000511041
772.8000,0.000524532
772.6000,0.000533784
772.4000,0.00054244
772.2000,0.000550439
772.0000,0.000556766
771.8000,0.000562915
771.6000,0.000570914
771.4000,0.0005776
771.2000,0.000581062
771.0000,0.000596403
770.8000,0.000604701
770.6000,0.000615923
770.4000,0.000620818
770.2000,0.000624639
770.0000,0.000629056
769.8000,0.000632279
769.6000,0.000634249
769.4000,0.000639801
769.2000,0.000646307
769.0000,0.000651083
768.8000,0.000655918
768.6000,0.000658067
768.4000,0.000657709
768.2000,0.000658366
768.0000,0.000666007
767.8000,0.000662843
767.6000,0.000662067
767.4000,0.000660873
767.2000,0.000661529
767.0000,0.00066541
766.8000,0.000662843
766.6000,0.000661231
766.4000,0.000654068
766.2000,0.000648695
766.0000,0.000637712
765.8000,0.0006321
765.6000,0.000623087
765.4000,0.000615684
765.2000,0.000616162
765.0000,0.000616222
764.8000,0.000606492
764.6000,0.000602671
764.4000,0.000602671
764.2000,0.000601239
764.0000,0.000599089
763.8000,0.000594433
763.6000,0.000593001
763.4000,0.000594672
763.2000,0.000597179
763.0000,0.000594016
762.8000,0.000598015
762.6000,0.000598254
762.4000,0.000599328
762.2000,0.000601895
762.0000,0.000603865
761.8000,0.000601358
761.6000,0.000608223
761.4000,0.000603387
761.2000,0.000599806
761.0000,0.000596284
760.8000,0.000595866
760.6000,0.000591508
760.4000,0.000589061
760.2000,0.000584644
760.0000,0.00058148
759.8000,0.000583032
759.6000,0.000580942
759.4000,0.00057951
759.2000,0.000584047
759.0000,0.000582017
758.8000,0.000577779
758.6000,0.000579092
758.4000,0.000574137
758.2000,0.000573481
758.0000,0.000571451
757.8000,0.000570854
757.6000,0.000567452
757.4000,0.000565303
757.2000,0.00056196
757.0000,0.000561542
756.8000,0.000555632
756.6000,0.000551573
756.4000,0.000547574
756.2000,0.000542082
756.0000,0.000533366
755.8000,0.000531456
755.6000,0.000526621
755.4000,0.000520472
755.2000,0.000517786
755.0000,0.00051504
754.8000,0.000510026
754.6000,0.00050334
754.4000,0.000500236
754.2000,0.000499042
754.0000,0.000495043
753.8000,0.000490208
753.6000,0.000486268
753.4000,0.000483164
753.2000,0.000482328
753.0000,0.000481791
752.8000,0.000478627
752.6000,0.000473254
752.4000,0.000469494
752.2000,0.000466569
752.0000,0.000464658
751.8000,0.000466748
751.6000,0.000467643
751.4000,0.000467822
751.2000,0.000467822
751.0000,0.00046824
750.8000,0.000471225
750.6000,0.000471404
750.4000,0.000474627
750.2000,0.000472538
750.0000,0.000472001
749.8000,0.000474806
749.6000,0.000477672
749.4000,0.00047988
749.2000,0.000482985
749.0000,0.000486865
748.8000,0.000485313
748.6000,0.000481194
748.4000,0.00048185
748.2000,0.000479582
748.0000,0.000475523
747.8000,0.000475941
747.6000,0.000472598
747.4000,0.000471464
747.2000,0.000469792
747.0000,0.000470688
746.8000,0.000473553
746.6000,0.000469852
746.4000,0.000469374
746.2000,0.000465494
746.0000,0.000465673
745.8000,0.000463882
745.6000,0.000461793
745.4000,0.000460957
745.2000,0.000456958
745.0000,0.000458391
744.8000,0.000458212
744.6000,0.000450869
744.4000,0.000446631
744.2000,0.000441497
744.0000,0.000442572
743.8000,0.00044287
743.6000,0.000439289
743.4000,0.00043517
743.2000,0.000433916
743.0000,0.000434035
742.8000,0.000434274
742.6000,0.00043111
742.4000,0.000434334
742.2000,0.000435229
742.0000,0.000434991
741.8000,0.000432842
741.6000,0.000433797
741.4000,0.000438811
741.2000,0.000441497
741.0000,0.000446392
740.8000,0.000444482
740.6000,0.00044299
740.4000,0.000441497
740.2000,0.000446273
740.0000,0.000295903
739.8000,0.000308559
739.6000,0.000320856
739.4000,0.000329631
739.2000,0.000341032
739.0000,0.000355001
738.8000,0.000367417
738.6000,0.000379953
738.4000,0.000391295
738.2000,0.000403353
738.0000,0.000414754
737.8000,0.000416485
737.6000,0.000417142
737.4000,0.000416485
737.2000,0.000409143
737.0000,0.000404308
736.8000,0.000399473
736.6000,0.000394399
736.4000,0.000389922
736.2000,0.000392548
736.0000,0.000387235
735.8000,0.000378878
735.6000,0.000373028
735.4000,0.000366521
735.2000,0.000362164
735.0000,0.000355896
734.8000,0.000348195
734.6000,0.000334645
734.4000,0.000324258
734.2000,0.000311722
734.0000,0.000306708
733.8000,0.00029859
733.6000,0.000288621
733.4000,0.000278592
733.2000,0.000270772
733.0000,0.00025758
732.8000,0.000245999
732.6000,0.000237403
732.4000,0.00022827
732.2000,0.000220928
732.0000,0.00020875
731.8000,0.000205527
731.6000,0.00020284
731.4000,0.000202184
731.2000,0.000202064
731.0000,0.000208213
730.8000,0.00021472
730.6000,0.000223793
730.4000,0.000237582
730.2000,0.000254953
730.0000,0.000273399
729.8000,0.000299067
729.6000,0.000332735
729.4000,0.000363179
729.2000,0.000393921
729.0000,0.000425201
728.8000,0.000454869
728.6000,0.000480239
728.4000,0.00050925
728.2000,0.00053062
728.0000,0.000547753
727.8000,0.000558318
727.6000,0.000567034
727.4000,0.000574316
727.2000,0.000577361
727.0000,0.000588225
726.8000,0.000595388
726.6000,0.000598672
726.4000,0.000600761
726.2000,0.00059897
726.0000,0.000590792
725.8000,0.000584823
725.6000,0.00057748
725.4000,0.000568287
725.2000,0.000553006
725.0000,0.000550678
724.8000,0.000551573
724.6000,0.000549902
724.4000,0.000550976
724.2000,0.000550857
724.0000,0.000552409
723.8000,0.000547872
723.6000,0.000542738
723.4000,0.000537485
723.2000,0.000531576
723.0000,0.000527218
722.8000,0.000529844
722.6000,0.000528352
722.4000,0.0005268
722.2000,0.000524532
722.0000,0.000528292
721.8000,0.00052292
721.6000,0.000512593
721.4000,0.000502863
721.2000,0.000493789
721.0000,0.000489133
720.8000,0.000482029
720.6000,0.000475463
720.4000,0.000466509
720.2000,0.000462151
720.0000,0.000458391
719.8000,0.000456898
719.6000,0.000455107
719.4000,0.00045075
719.2000,0.000446392
719.0000,0.00044675
718.8000,0.000441378
718.6000,0.000441079
718.4000,0.000440124
718.2000,0.00044484
718.0000,0.000446691
717.8000,0.000441258
717.6000,0.0004409
717.4000,0.000437378
717.2000,0.000438811
717.0000,0.000439587
716.8000,0.000432185
716.6000,0.000427111
716.4000,0.000423649
716.2000,0.00041953
716.0000,0.000418873
715.8000,0.000418634
715.6000,0.000418634
715.4000,0.000417978
715.2000,0.000416068
715.0000,0.000412307
714.8000,0.000410158
714.6000,0.000414456
714.4000,0.000413143
714.2000,0.000414515
714.0000,0.000417142
713.8000,0.000414695
713.6000,0.00041756
713.4000,0.000418873
713.2000,0.000420425
713.0000,0.000426693
712.8000,0.000429081
712.6000,0.000430812
712.4000,0.000434573
712.2000,0.000434155
712.0000,0.000437856
711.8000,0.000440662
711.6000,0.000442393
711.4000,0.000443885
711.2000,0.000443228
711.0000,0.000443885
710.8000,0.000441079
710.6000,0.000443885
710.4000,0.000444064
710.2000,0.000446452
710.0000,0.000444542
709.8000,0.00044687
709.6000,0.000448183
709.4000,0.000447765
709.2000,0.00044884
709.0000,0.000451466
708.8000,0.000453854
708.6000,0.000456719
708.4000,0.000457794
708.2000,0.000458271
708.0000,0.000461256
707.8000,0.000460659
707.6000,0.000465017
707.4000,0.000461495
707.2000,0.000463703
707.0000,0.000461316
706.8000,0.000456779
706.6000,0.000450869
706.4000,0.000445198
706.2000,0.000441258
706.0000,0.000438513
705.8000,0.000436244
705.6000,0.000432842
705.4000,0.000430454
705.2000,0.000428424
705.0000,0.000428006
704.8000,0.000427768
704.6000,0.000427827
704.4000,0.000426036
704.2000,0.000426514
704.0000,0.000425201
703.8000,0.000424723
703.6000,0.00042347
703.4000,0.000421918
703.2000,0.000416903
703.0000,0.000415172
702.8000,0.000410576
702.6000,0.000407293
702.4000,0.000405979
702.2000,0.000402457
702.0000,0.000402039
701.8000,0.000395055
701.6000,0.000396607
701.4000,0.000393981
701.2000,0.000394399
701.0000,0.000394399
700.8000,0.000393742
700.6000,0.000392011
700.4000,0.000395772
700.2000,0.000396607
700.0000,0.000404487
699.8000,0.000406875
699.6000,0.000408128
699.4000,0.000410158
699.2000,0.000411411
699.0000,0.000409442
698.8000,0.000411053
698.6000,0.000411889
698.4000,0.000406636
698.2000,0.000409501
698.0000,0.000406158
697.8000,0.000408427
697.6000,0.000410576
697.4000,0.000410576
697.2000,0.00041165
697.0000,0.000408367
696.8000,0.000405144
696.6000,0.000404427
696.4000,0.000402935
696.2000,0.00040007
696.0000,0.000398577
695.8000,0.000398756
695.6000,0.000394637
695.4000,0.000396607
695.2000,0.000394936
695.0000,0.000390638
694.8000,0.000389981
694.6000,0.000384072
694.4000,0.000379475
694.2000,0.000374282
694.0000,0.000371715
693.8000,0.000375476
693.6000,0.000380311
693.4000,0.000382519
693.2000,0.000384072
693.0000,0.000384131
692.8000,0.000382818
692.6000,0.000385922
692.4000,0.000386817
692.2000,0.000385803
692.0000,0.00038819
691.8000,0.000386041
691.6000,0.000384251
691.4000,0.000383892
691.2000,0.000380371
691.0000,0.000381326
690.8000,0.000379177
690.6000,0.000377207
690.4000,0.000372431
690.2000,0.000366999
690.0000,0.000363716
689.8000,0.000364611
689.6000,0.000366581
689.4000,0.000362343
689.2000,0.000363059
689.0000,0.000362403
688.8000,0.00035715
688.6000,0.000359119
688.4000,0.000358224
688.2000,0.000358045
688.0000,0.000361925
687.8000,0.000365208
687.6000,0.000365029
687.4000,0.000366999
687.2000,0.000369626
687.0000,0.000372491
686.8000,0.000371357
686.6000,0.000373804
686.4000,0.000368551
686.2000,0.000371536
686.0000,0.000372013
685.8000,0.000374461
685.6000,0.000379714
685.4000,0.000379057
685.2000,0.000385803
685.0000,0.000386698
684.8000,0.000385385
684.6000,0.000384489
684.4000,0.000386698
684.2000,0.000386519
684.0000,0.000387414
683.8000,0.0003864
683.6000,0.000391235
683.4000,0.000388429
683.2000,0.000390877
683.0000,0.000388071
682.8000,0.000387653
682.6000,0.00038634
682.4000,0.000381982
682.2000,0.000380729
682.0000,0.000374401
681.8000,0.000372491
681.6000,0.000372073
681.4000,0.000367715
681.2000,0.000368133
681.0000,0.000365387
680.8000,0.000363238
680.6000,0.000364969
680.4000,0.000362582
680.2000,0.000361985
680.0000,0.000362403
679.8000,0.000366163
679.6000,0.000363776
679.4000,0.000361627
679.2000,0.000364969
679.0000,0.000366939
678.8000,0.000368909
678.6000,0.000373267
678.4000,0.000376311
678.2000,0.000379594
678.0000,0.000381326
677.8000,0.000379177
677.6000,0.000379594
677.4000,0.00037852
677.2000,0.000380251
677.0000,0.000381564
676.8000,0.000379833
676.6000,0.000379177
676.4000,0.000376968
676.2000,0.000374759
676.0000,0.000371058
675.8000,0.000370163
675.6000,0.000370402
675.4000,0.000365387
675.2000,0.000364492
675.0000,0.000367775
674.8000,0.00036688
674.6000,0.000368611
674.4000,0.000368193
674.2000,0.000371058
674.0000,0.000373028
673.8000,0.000375416
673.6000,0.000376073
673.4000,0.000377207
673.2000,0.000381803
673.0000,0.000387534
672.8000,0.00039613
672.6000,0.000398756
672.4000,0.000397562
672.2000,0.00039804
672.0000,0.000398517
671.8000,0.000401383
671.6000,0.000397921
671.4000,0.000395533
671.2000,0.000392071
671.0000,0.0003864
670.8000,0.000380072
670.6000,0.000373148
670.4000,0.000373088
670.2000,0.000369208
670.0000,0.000365984
669.8000,0.000361447
669.6000,0.000355299
669.4000,0.00035315
669.2000,0.000351658
669.0000,0.000352076
668.8000,0.000348374
668.6000,0.000343897
668.4000,0.000347658
668.2000,0.000350344
668.0000,0.000350523
667.8000,0.000352553
667.6000,0.000352255
667.4000,0.00035118
667.2000,0.000352672
667.0000,0.000350941
666.8000,0.00035118
666.6000,0.000352076
666.4000,0.000351419
666.2000,0.000350703
666.0000,0.000350344
665.8000,0.000350762
665.6000,0.000352493
665.4000,0.000351598
665.2000,0.000345509
665.0000,0.000341748
664.8000,0.000341331
664.6000,0.000335361
664.4000,0.000332556
664.2000,0.000332735
664.0000,0.000326347
663.8000,0.000324616
663.6000,0.000323303
663.4000,0.000321512
663.2000,0.00032199
663.0000,0.00031805
662.8000,0.000317334
662.6000,0.000314946
662.4000,0.000313215
662.2000,0.000309275
662.0000,0.000310588
661.8000,0.000309096
661.6000,0.000309394
661.4000,0.000309215
661.2000,0.000313394
661.0000,0.000315244
660.8000,0.000315961
660.6000,0.000315722
660.4000,0.000311603
660.2000,0.000305275
660.0000,0.000300918
659.8000,0.00030247
659.6000,0.000302291
659.4000,0.00029859
659.2000,0.000297933
659.0000,0.000294471
658.8000,0.000290232
658.6000,0.000285218
658.4000,0.000280383
658.2000,0.000281517
658.0000,0.000280204
657.8000,0.000282592
657.6000,0.000283666
657.4000,0.000283427
657.2000,0.000284979
657.0000,0.000288083
656.8000,0.000287666
656.6000,0.000287427
656.4000,0.000287845
656.2000,0.000291605
656.0000,0.000290531
655.8000,0.000291367
655.6000,0.000289158
655.4000,0.000293337
655.2000,0.000291605
655.0000,0.000288979
654.8000,0.000285039
654.6000,0.000279965
654.4000,0.0002771
654.2000,0.000278174
654.0000,0.000275309
653.8000,0.000276204
653.6000,0.00027907
653.4000,0.000278592
653.2000,0.000276861
653.0000,0.000279965
652.8000,0.000284741
652.6000,0.000286293
652.4000,0.000294471
652.2000,0.000294471
652.0000,0.000302231
651.8000,0.000305395
651.6000,0.000306947
651.4000,0.000307245
651.2000,0.000306768
651.0000,0.000304201
650.8000,0.000306648
650.6000,0.000304738
650.4000,0.000301455
650.2000,0.000297575
650.0000,0.000295784
649.8000,0.000284382
649.6000,0.000274772
649.4000,0.000270593
649.2000,0.000261579
649.0000,0.000259132
648.8000,0.000254476
648.6000,0.000250775
648.4000,0.000249461
648.2000,0.000249402
648.0000,0.000251431
647.8000,0.000249461
647.6000,0.000249223
647.4000,0.00024588
647.2000,0.00024594
647.0000,0.000247432
646.8000,0.000247432
646.6000,0.000251193
646.4000,0.00025161
646.2000,0.000254058
646.0000,0.000257819
645.8000,0.000257102
645.6000,0.000259311
645.4000,0.000258654
645.2000,0.00025955
645.0000,0.00025758
644.8000,0.000257341
644.6000,0.000256505
644.4000,0.000254953
644.2000,0.000256505
644.0000,0.000257401
643.8000,0.000257998
643.6000,0.000259311
643.4000,0.000261758
643.2000,0.000264624
643.0000,0.000267071
642.8000,0.000270175
642.6000,0.000275488
642.4000,0.000269817
642.2000,0.000272265
642.0000,0.000269459
641.8000,0.000270354
641.6000,0.000271309
641.4000,0.000274175
641.2000,0.000275607
641.0000,0.000273399
640.8000,0.000272563
640.6000,0.000273279
640.4000,0.000274652
640.2000,0.000274473
640.0000,0.000274712
639.8000,0.000274234
639.6000,0.000268325
639.4000,0.000261639
639.2000,0.000266773
639.0000,0.000270713
638.8000,0.000273578
638.6000,0.000277756
638.4000,0.000278234
638.2000,0.000280204
638.0000,0.000285338
637.8000,0.000291964
637.6000,0.000294829
637.4000,0.000299425
637.2000,0.000299187
637.0000,0.000300977
636.8000,0.000305634
636.6000,0.000307006
636.4000,0.000314946
636.2000,0.000316677
636.0000,0.000313334
635.8000,0.000308738
635.6000,0.000307842
635.4000,0.000304738
635.2000,0.000301873
635.0000,0.000299843
634.8000,0.00029459
634.6000,0.000288442
634.4000,0.000286591
634.2000,0.000276921
634.0000,0.000275787
633.8000,0.000270295
633.6000,0.000265639
633.4000,0.000267011
633.2000,0.000261938
633.0000,0.000260624
632.8000,0.000260923
632.6000,0.000262952
632.4000,0.000263012
632.2000,0.000261042
632.0000,0.000260684
631.8000,0.000260266
631.6000,0.000262714
631.4000,0.000268325
631.2000,0.000268802
631.0000,0.000274414
630.8000,0.000275309
630.6000,0.000276563
630.4000,0.000277518
630.2000,0.000272623
630.0000,0.000271489
629.8000,0.000275249
629.6000,0.000273697
629.4000,0.000274175
629.2000,0.000272862
629.0000,0.000272384
628.8000,0.00027125
628.6000,0.000271727
628.4000,0.000275249
628.2000,0.000274593
628.0000,0.000276145
627.8000,0.000276563
627.6000,0.000278831
627.4000,0.000284562
627.2000,0.000287009
627.0000,0.000289456
626.8000,0.000290352
626.6000,0.000289218
626.4000,0.000291665
626.2000,0.000289218
626.0000,0.000292561
625.8000,0.000295903
625.6000,0.000297873
625.4000,0.00029853
625.2000,0.000293396
625.0000,0.000292083
624.8000,0.000291068
624.6000,0.000289098
624.4000,0.000282532
624.2000,0.000277219
624.0000,0.000272384
623.8000,0.000269101
623.6000,0.000274234
623.4000,0.000278294
623.2000,0.000279667
623.0000,0.000284084
622.8000,0.000287964
622.6000,0.000288442
622.4000,0.000289337
622.2000,0.000289815
622.0000,0.000293396
621.8000,0.000297157
621.6000,0.000297993
621.4000,0.000302052
621.2000,0.000307365
621.0000,0.000310051
620.8000,0.000313573
620.6000,0.00031799
620.4000,0.000314468
620.2000,0.000314409
620.0000,0.000317155
619.8000,0.000316259
619.6000,0.00031226
619.4000,0.000315543
619.2000,0.000318647
619.0000,0.000319363
618.8000,0.000321572
618.6000,0.000320676
618.4000,0.000325571
618.2000,0.00032575
618.0000,0.000332675
617.8000,0.000337331
617.6000,0.0003433
617.4000,0.000349688
617.2000,0.000352792
617.0000,0.000353031
616.8000,0.000357926
616.6000,0.000362224
616.4000,0.000365865
616.2000,0.000365029
616.0000,0.000367238
615.8000,0.000368909
615.6000,0.000367357
615.4000,0.000370043
615.2000,0.000369685
615.0000,0.000372371
614.8000,0.000368014
614.6000,0.000367178
614.4000,0.000362761
614.2000,0.000359478
614.0000,0.000365745
613.8000,0.000365805
613.6000,0.000360671
613.4000,0.000357388
613.2000,0.000355418
613.0000,0.000356911
612.8000,0.000357806
612.6000,0.000358463
612.4000,0.000360254
612.2000,0.000362701
612.0000,0.00036294
611.8000,0.000361806
611.6000,0.000364671
611.4000,0.000365984
611.2000,0.000368909
611.0000,0.00036873
610.8000,0.000362044
610.6000,0.000360015
610.4000,0.000361328
610.2000,0.00036091
610.0000,0.000363835
609.8000,0.000365865
609.6000,0.000365149
609.4000,0.000366462
609.2000,0.000370223
609.0000,0.000371775
608.8000,0.000378699
608.6000,0.000379415
608.4000,0.000380729
608.2000,0.000380848
608.0000,0.000383057
607.8000,0.000383594
607.6000,0.000385385
607.4000,0.000392727
607.2000,0.000398995
607.0000,0.000402636
606.8000,0.0004058
606.6000,0.000411173
606.4000,0.000416605
606.2000,0.000418575
606.0000,0.000418037
605.8000,0.000420724
605.6000,0.000412963
605.4000,0.000418097
605.2000,0.000419052
605.0000,0.000423111
604.8000,0.000423171
604.6000,0.000426335
604.4000,0.000434752
604.2000,0.000437916
604.0000,0.000438095
603.8000,0.000445019
603.6000,0.000445019
603.4000,0.000440781
603.2000,0.000442333
603.0000,0.00044681
602.8000,0.000450153
602.6000,0.000448123
602.4000,0.0004526
602.2000,0.000453675
602.0000,0.000457734
601.8000,0.000460659
601.6000,0.000466211
601.4000,0.000470688
601.2000,0.000473314
601.0000,0.000472896
600.8000,0.000471105
600.6000,0.00047403
600.4000,0.000475583
600.2000,0.000481373
600.0000,0.000482746
599.8000,0.000481015
599.6000,0.000482865
599.4000,0.000486029
599.2000,0.000490327
599.0000,0.000493073
598.8000,0.000493073
598.6000,0.000497192
598.4000,0.000498983
598.2000,0.000502146
598.0000,0.000503101
597.8000,0.000507399
597.6000,0.000513727
597.4000,0.000512653
597.2000,0.000514921
597.0000,0.000520114
596.8000,0.000519756
596.6000,0.000523338
596.4000,0.000526979
596.2000,0.00053062
596.0000,0.00053062
595.8000,0.000528591
595.6000,0.000530859
595.4000,0.000525964
595.2000,0.000526561
595.0000,0.000527278
594.8000,0.0005268
594.6000,0.000530859
594.4000,0.000534202
594.2000,0.000539813
594.0000,0.00054626
593.8000,0.00054626
593.6000,0.000553424
593.4000,0.000560587
593.2000,0.000563273
593.0000,0.000567273
592.8000,0.000574018
592.6000,0.000581181
592.4000,0.0005853
592.2000,0.000594911
592.0000,0.000598075
591.8000,0.000601119
591.6000,0.000603805
591.4000,0.000606372
591.2000,0.000611327
591.0000,0.000610909
590.8000,0.000607805
590.6000,0.000613715
590.4000,0.000617296
590.2000,0.000621176
590.0000,0.000624101
589.8000,0.000627683
589.6000,0.000632458
589.4000,0.000636756
589.2000,0.000636577
589.0000,0.000642069
588.8000,0.000650844
588.6000,0.000659381
588.4000,0.000664514
588.2000,0.000669767
588.0000,0.000670424
587.8000,0.000678304
587.6000,0.000688093
587.4000,0.000691496
587.2000,0.00069257
587.0000,0.000694182
586.8000,0.00070045
586.6000,0.000707375
586.4000,0.000714538
586.2000,0.000722119
586.0000,0.000733819
585.8000,0.000739072
585.6000,0.000743788
585.4000,0.000749041
585.2000,0.000756682
585.0000,0.000757697
584.8000,0.00076486
584.6000,0.000765397
584.4000,0.000773933
584.2000,0.000784738
584.0000,0.000796199
583.8000,0.000805273
583.6000,0.0008156
583.4000,0.000820435
583.2000,0.000824494
583.0000,0.000829449
582.8000,0.000836015
582.6000,0.000843477
582.4000,0.000849625
582.2000,0.000858162
582.0000,0.000870518
581.8000,0.000886934
581.6000,0.000899112
581.4000,0.000913498
581.2000,0.000922273
581.0000,0.000925019
580.8000,0.000931645
580.6000,0.000941733
580.4000,0.000946927
580.2000,0.000955582
580.0000,0.000964835
579.8000,0.000975222
579.6000,0.0009834
579.4000,0.000994204
579.2000,0.00100322
579.0000,0.00101522
578.8000,0.00102536
578.6000,0.00103127
578.4000,0.0010385
578.2000,0.0010502
578.0000,0.00105861
577.8000,0.00107014
577.6000,0.00107939
577.4000,0.00108231
577.2000,0.00109049
577.0000,0.00110225
576.8000,0.00110971
576.6000,0.00111855
576.4000,0.00112893
576.2000,0.00113753
576.0000,0.00114989
575.8000,0.00115651
575.6000,0.00116308
575.4000,0.00117639
575.2000,0.00118839
575.0000,0.00119806
574.8000,0.00121006
574.6000,0.00122009
574.4000,0.00123274
574.2000,0.0012451
574.0000,0.00125954
573.8000,0.00126939
573.6000,0.00127829
573.4000,0.00129232
573.2000,0.00130372
573.0000,0.00131231
572.8000,0.00132055
572.6000,0.00133058
572.4000,0.00134485
572.2000,0.0013544
572.0000,0.0013695
571.8000,0.00138305
571.6000,0.00139756
571.4000,0.00141356
571.2000,0.0014249
571.0000,0.001444
570.8000,0.00145785
570.6000,0.00147522
570.4000,0.00149575
570.2000,0.00150614
570.0000,0.00152244
569.8000,0.0015376
569.6000,0.00155437
569.4000,0.00157115
569.2000,0.00158124
569.0000,0.00159646
568.8000,0.00160738
568.6000,0.00161902
568.4000,0.00162839
568.2000,0.00164045
568.0000,0.00166081
567.8000,0.00167358
567.6000,0.00168588
567.4000,0.00169615
567.2000,0.00170844
567.0000,0.00172325
566.8000,0.00174026
566.6000,0.00175668
566.4000,0.00176987
566.2000,0.00177894
566.0000,0.00179643
565.8000,0.00181303
565.6000,0.0018224
565.4000,0.00183488
565.2000,0.00184341
565.0000,0.00184938
564.8000,0.00185899
564.6000,0.00187201
564.4000,0.00188663
564.2000,0.00190543
564.0000,0.00192322
563.8000,0.00193898
563.6000,0.00195104
563.4000,0.00196196
563.2000,0.00198137
563.0000,0.00200656
562.8000,0.00202769
562.6000,0.00204774
562.4000,0.00207341
562.2000,0.00210069
562.0000,0.00213496
561.8000,0.00216827
561.6000,0.00219597
561.4000,0.00222211
561.2000,0.00225094
561.0000,0.00227619
560.8000,0.00230109
560.6000,0.00232664
560.4000,0.00235284
560.2000,0.00238699
560.0000,0.0024148
559.8000,0.0024437
559.6000,0.00246596
559.4000,0.00249372
559.2000,0.00252763
559.0000,0.00255538
558.8000,0.00257914
558.6000,0.00260941
558.4000,0.00263406
558.2000,0.0026605
558.0000,0.00268558
557.8000,0.00271047
557.6000,0.00274193
557.4000,0.00277464
557.2000,0.00281207
557.0000,0.00284448
556.8000,0.0028794
556.6000,0.00291068
556.4000,0.00294554
556.2000,0.00297503
556.0000,0.00300518
555.8000,0.00303461
555.6000,0.00306523
555.4000,0.00308881
555.2000,0.00311645
555.0000,0.00314862
554.8000,0.00318539
554.6000,0.00322145
554.4000,0.00325183
554.2000,0.00328156
554.0000,0.00330663
553.8000,0.00333391
553.6000,0.00336119
553.4000,0.00338877
553.2000,0.00341742
553.0000,0.00344972
552.8000,0.003485
552.6000,0.00352529
552.4000,0.00356397
552.2000,0.00360337
552.0000,0.00364522
551.8000,0.00368706
551.6000,0.00372031
551.4000,0.00375535
551.2000,0.00379183
551.0000,0.00383552
550.8000,0.00387438
550.6000,0.00391205
550.4000,0.00395491
550.2000,0.00399395
550.0000,0.00403412
549.8000,0.00407543
549.6000,0.00410982
549.4000,0.00414563
549.2000,0.0041833
549.0000,0.00422891
548.8000,0.0042686
548.6000,0.0043046
548.4000,0.00434614
548.2000,0.00438668
548.0000,0.00443282
547.8000,0.0044752
547.6000,0.00452779
547.4000,0.00457358
547.2000,0.00462163
547.0000,0.00467404
546.8000,0.00472872
546.6000,0.00477791
546.4000,0.00483104
546.2000,0.00488751
546.0000,0.0049404
545.8000,0.00499192
545.6000,0.00504922
545.4000,0.00510301
545.2000,0.00516013
545.0000,0.00521792
544.8000,0.0052717
544.6000,0.00532035
544.4000,0.00537175
544.2000,0.00543138
544.0000,0.00548284
543.8000,0.0055371
543.6000,0.00558921
543.4000,0.005643
543.2000,0.00569798
543.0000,0.00574519
542.8000,0.00580089
542.6000,0.00585628
542.4000,0.00591061
542.2000,0.00597114
542.0000,0.0060282
541.8000,0.00608861
541.6000,0.00614825
541.4000,0.00621863
541.2000,0.00628399
541.0000,0.00635372
540.8000,0.00642099
540.6000,0.00648636
540.4000,0.00655853
540.2000,0.00663225
540.0000,0.00670358
539.8000,0.00678214
539.6000,0.00686237
539.4000,0.0069383
539.2000,0.00701333
539.0000,0.00709237
538.8000,0.00717511
538.6000,0.00725259
538.4000,0.00733049
538.2000,0.00740224
538.0000,0.00748086
537.8000,0.00755536
537.6000,0.00763356
537.4000,0.00771683
537.2000,0.0077921
537.0000,0.00786821
536.8000,0.00794916
536.6000,0.00802622
536.4000,0.00810329
536.2000,0.00818656
536.0000,0.00827049
535.8000,0.00835096
535.6000,0.00842958
535.4000,0.00851625
535.2000,0.00860179
535.0000,0.00869104
534.8000,0.00877932
534.6000,0.0088691
534.4000,0.00895918
534.2000,0.00904639
534.0000,0.00913898
533.8000,0.00923443
533.6000,0.00933245
533.4000,0.00943142
533.2000,0.00952466
533.0000,0.00962173
532.8000,0.00972231
532.6000,0.00982385
532.4000,0.00992736
532.2000,0.0100278
532.0000,0.010131
531.8000,0.0102363
531.6000,0.0103399
531.4000,0.0104413
531.2000,0.0105489
531.0000,0.01066
530.8000,0.010768
530.6000,0.010872
530.4000,0.0109771
530.2000,0.0110815
530.0000,0.0111942
529.8000,0.0113059
529.6000,0.0114154
529.4000,0.0115253
529.2000,0.0116414
529.0000,0.0117556
528.8000,0.0118693
528.6000,0.0119816
528.4000,0.0120933
528.2000,0.0122151
528.0000,0.0123289
527.8000,0.0124384
527.6000,0.0125553
527.4000,0.0126816
527.2000,0.0128051
527.0000,0.0129293
526.8000,0.0130523
526.6000,0.0131798
526.4000,0.0133081
526.2000,0.0134386
526.0000,0.013566
525.8000,0.0136971
525.6000,0.013832
525.4000,0.0139674
525.2000,0.0141047
525.0000,0.0142402
524.8000,0.014379
524.6000,0.0145207
524.4000,0.0146645
524.2000,0.014801
524.0000,0.014938
523.8000,0.015081
523.6000,0.0152281
523.4000,0.0153679
523.2000,0.0155108
523.0000,0.015656
522.8000,0.0158014
522.6000,0.0159559
522.4000,0.0161026
522.2000,0.0162598
522.0000,0.0164123
521.8000,0.016566
521.6000,0.0167234
521.4000,0.0168827
521.2000,0.0170415
521.0000,0.0172047
520.8000,0.0173729
520.6000,0.0175394
520.4000,0.0177023
520.2000,0.0178747
520.0000,0.0180454
519.8000,0.0182151
519.6000,0.0183872
519.4000,0.0185565
519.2000,0.0187375
519.0000,0.0189127
518.8000,0.0190881
518.6000,0.0192649
518.4000,0.0194442
518.2000,0.0196267
518.0000,0.0198094
517.8000,0.0199982
517.6000,0.0201801
517.4000,0.0203662
517.2000,0.0205491
517.0000,0.0207288
516.8000,0.0209175
516.6000,0.0211099
516.4000,0.0213082
516.2000,0.0215017
516.0000,0.0216932
515.8000,0.0218874
515.6000,0.0220878
515.4000,0.0222868
515.2000,0.0224897
515.0000,0.0226931
514.8000,0.0228998
514.6000,0.023098
514.4000,0.0233096
514.2000,0.0235192
514.0000,0.0237357
513.8000,0.0239537
513.6000,0.0241708
513.4000,0.0243871
513.2000,0.0246022
513.0000,0.0248237
512.8000,0.0250532
512.6000,0.0252799
512.4000,0.0255088
512.2000,0.0257437
512.0000,0.0259744
511.8000,0.0262093
511.6000,0.0264423
511.4000,0.0266819
511.2000,0.0269143
511.0000,0.0271499
510.8000,0.0273922
510.6000,0.0276332
510.4000,0.0278729
510.2000,0.0281209
510.0000,0.0283696
509.8000,0.0286182
509.6000,0.0288649
509.4000,0.0291156
509.2000,0.029363
509.0000,0.0296136
508.8000,0.0298697
508.6000,0.0301244
508.4000,0.0303865
508.2000,0.0306491
508.0000,0.0309121
507.8000,0.0311809
507.6000,0.0314513
507.4000,0.0317276
507.2000,0.0320032
507.0000,0.0322734
506.8000,0.0325456
506.6000,0.0328206
506.4000,0.033094
506.2000,0.0333659
506.0000,0.0336459
505.8000,0.0339277
505.6000,0.0342104
505.4000,0.0344975
505.2000,0.0347815
505.0000,0.0350694
504.8000,0.0353554
504.6000,0.0356464
504.4000,0.0359381
504.2000,0.0362297
504.0000,0.0365277
503.8000,0.036833
503.6000,0.0371387
503.4000,0.0374433
503.2000,0.0377528
503.0000,0.0380696
502.8000,0.0383886
502.6000,0.0387047
502.4000,0.0390211
502.2000,0.0393367
502.0000,0.0396569
501.8000,0.0399791
501.6000,0.0403075
501.4000,0.0406325
501.2000,0.0409571
501.0000,0.0412867
500.8000,0.0416159
500.6000,0.0419382
500.4000,0.0422635
500.2000,0.0425977
500.0000,0.0431821
499.8000,0.0435164
499.6000,0.0438632
499.4000,0.0442122
499.2000,0.0445642
499.0000,0.0449123
498.8000,0.0452653
498.6000,0.0456225
498.4000,0.0459718
498.2000,0.0463274
498.0000,0.0466784
497.8000,0.0470337
497.6000,0.0473972
497.4000,0.0477512
497.2000,0.0481151
497.0000,0.0484794
496.8000,0.0488466
496.6000,0.04922
496.4000,0.0495926
496.2000,0.0499646
496.0000,0.0503463
495.8000,0.0507181
495.6000,0.0510933
495.4000,0.0514745
495.2000,0.0518555
495.0000,0.0522421
494.8000,0.0526337
494.6000,0.0530269
494.4000,0.0534144
494.2000,0.0538099
494.0000,0.0541981
493.8000,0.0545907
493.6000,0.0549908
493.4000,0.0553892
493.2000,0.0557907
493.0000,0.0561998
492.8000,0.0566041
492.6000,0.0570137
492.4000,0.0574265
492.2000,0.0578385
492.0000,0.0582523
491.8000,0.0586682
491.6000,0.0590836
491.4000,0.0595003
491.2000,0.0599239
491.0000,0.0603424
490.8000,0.0607654
490.6000,0.0611869
490.4000,0.0616104
490.2000,0.0620364
490.0000,0.0624624
489.8000,0.0628956
489.6000,0.0633282
489.4000,0.0637673
489.2000,0.0642038
489.0000,0.0646355
488.8000,0.0650832
488.6000,0.0655278
488.4000,0.0659742
488.2000,0.0664234
488.0000,0.0668684
487.8000,0.0673219
487.6000,0.067783
487.4000,0.0682475
487.2000,0.0687075
487.0000,0.0691645
486.8000,0.0696248
486.6000,0.0700826
486.4000,0.0705469
486.2000,0.0709964
486.0000,0.071463
485.8000,0.0719441
485.6000,0.0724028
485.4000,0.0728737
485.2000,0.0733487
485.0000,0.0738275
484.8000,0.0743026
484.6000,0.0747764
484.4000,0.0752506
484.2000,0.0757183
484.0000,0.0761864
483.8000,0.0766712
483.6000,0.0771586
483.4000,0.0776387
483.2000,0.0781211
483.0000,0.0786153
482.8000,0.0790987
482.6000,0.0795779
482.4000,0.0800642
482.2000,0.080551
482.0000,0.0810382
481.8000,0.0815241
481.6000,0.0820144
481.4000,0.0825097
481.2000,0.0829968
481.0000,0.0834979
480.8000,0.0839946
480.6000,0.0844824
480.4000,0.0849749
480.2000,0.0854698
480.0000,0.0859624
479.8000,0.0864543
479.6000,0.0869503
479.4000,0.0874481
479.2000,0.0879503
479.0000,0.0884425
478.8000,0.0889322
478.6000,0.0894223
478.4000,0.0899164
478.2000,0.0904163
478.0000,0.090929
477.8000,0.0914343
477.6000,0.0919461
477.4000,0.0924528
477.2000,0.09296
477.0000,0.0934607
476.8000,0.0939721
476.6000,0.094482
476.4000,0.0949881
476.2000,0.0954886
476.0000,0.0959878
475.8000,0.0964871
475.6000,0.0970046
475.4000,0.0975113
475.2000,0.0980249
475.0000,0.0985269
474.8000,0.0990169
474.6000,0.0995101
474.4000,0.100013
474.2000,0.100521
474.0000,0.101018
473.8000,0.101526
473.6000,0.10202
473.4000,0.102518
473.2000,0.103029
473.0000,0.103536
472.8000,0.10405
472.6000,0.104564
472.4000,0.105059
472.2000,0.105568
472.0000,0.106061
471.8000,0.106562
471.6000,0.107075
471.4000,0.107579
471.2000,0.108087
471.0000,0.108587
470.8000,0.109089
470.6000,0.109584
470.4000,0.11009
470.2000,0.110587
470.0000,0.111071
469.8000,0.11156
469.6000,0.112046
469.4000,0.112533
469.2000,0.113028
469.0000,0.113514
468.8000,0.114003
468.6000,0.114487
468.4000,0.114976
468.2000,0.11546
468.0000,0.115926
467.8000,0.116404
467.6000,0.116879
467.4000,0.117348
467.2000,0.117803
467.0000,0.118284
466.8000,0.118762
466.6000,0.119226
466.4000,0.119691
466.2000,0.120152
466.0000,0.120613
465.8000,0.121085
465.6000,0.121549
465.4000,0.122008
465.2000,0.122457
465.0000,0.122912
464.8000,0.123366
464.6000,0.123811
464.4000,0.124262
464.2000,0.124719
464.0000,0.125171
463.8000,0.125616
463.6000,0.126051
463.4000,0.126502
463.2000,0.126941
463.0000,0.127382
462.8000,0.127812
462.6000,0.12823
462.4000,0.128657
462.2000,0.129075
462.0000,0.129499
461.8000,0.129913
461.6000,0.130328
461.4000,0.130738
461.2000,0.131152
461.0000,0.131555
460.8000,0.131957
460.6000,0.132345
460.4000,0.132741
460.2000,0.133129
460.0000,0.133518
459.8000,0.133905
459.6000,0.134291
459.4000,0.134672
459.2000,0.135048
459.0000,0.135424
458.8000,0.135791
458.6000,0.136158
458.4000,0.13652
458.2000,0.136881
458.0000,0.137238
457.8000,0.1376
457.6000,0.137951
457.4000,0.138303
457.2000,0.138644
457.0000,0.138968
456.8000,0.139296
456.6000,0.139607
456.4000,0.139933
456.2000,0.140244
456.0000,0.140547
455.8000,0.140857
455.6000,0.141154
455.4000,0.141456
455.2000,0.141752
455.0000,0.142048
454.8000,0.142326
454.6000,0.142596
454.4000,0.142871
454.2000,0.143141
454.0000,0.143413
453.8000,0.143694
453.6000,0.143941
453.4000,0.144206
453.2000,0.144442
453.0000,0.144696
452.8000,0.144953
452.6000,0.145193
452.4000,0.145426
452.2000,0.145658
452.0000,0.145886
451.8000,0.146103
451.6000,0.146318
451.4000,0.146522
451.2000,0.146727
451.0000,0.146924
450.8000,0.147113
450.6000,0.147289
450.4000,0.147485
450.2000,0.14766
450.0000,0.147833
449.8000,0.147988
449.6000,0.148145
449.4000,0.148296
449.2000,0.148441
449.0000,0.148566
448.8000,0.148693
448.6000,0.148809
448.4000,0.148927
448.2000,0.149041
448.0000,0.149157
447.8000,0.149265
447.6000,0.14936
447.4000,0.149457
447.2000,0.149553
447.0000,0.149638
446.8000,0.149723
446.6000,0.149802
446.4000,0.14986
446.2000,0.149914
446.0000,0.149969
445.8000,0.15002
445.6000,0.150075
445.4000,0.150126
445.2000,0.15016
445.0000,0.150191
444.8000,0.150208
444.6000,0.150222
444.4000,0.15023
444.2000,0.150229
444.0000,0.150214
443.8000,0.150207
443.6000,0.150197
443.4000,0.150176
443.2000,0.150159
443.0000,0.150142
442.8000,0.150107
442.6000,0.150075
442.4000,0.150014
442.2000,0.149955
442.0000,0.149891
441.8000,0.149836
441.6000,0.149755
441.4000,0.149685
441.2000,0.149606
441.0000,0.149531
440.8000,0.149439
440.6000,0.149325
440.4000,0.149209
440.2000,0.149088
440.0000,0.148957
439.8000,0.148799
439.6000,0.148668
439.4000,0.148526
439.2000,0.148375
439.0000,0.148222
438.8000,0.148062
438.6000,0.147886
438.4000,0.147713
438.2000,0.147513
438.0000,0.147325
437.8000,0.147131
437.6000,0.146931
437.4000,0.146733
437.2000,0.146527
437.0000,0.146314
436.8000,0.146098
436.6000,0.145891
436.4000,0.145665
436.2000,0.145423
436.0000,0.14518
435.8000,0.144918
435.6000,0.144652
435.4000,0.144387
435.2000,0.144129
435.0000,0.143856
434.8000,0.143568
434.6000,0.143274
434.4000,0.142987
434.2000,0.142698
434.0000,0.142398
433.8000,0.142089
433.6000,0.141767
433.4000,0.141448
433.2000,0.141128
433.0000,0.140804
432.8000,0.140472
432.6000,0.140147
432.4000,0.139821
432.2000,0.13948
432.0000,0.139108
431.8000,0.138762
431.6000,0.138425
431.4000,0.138062
431.2000,0.137692
431.0000,0.137313
430.8000,0.136927
430.6000,0.136525
430.4000,0.136135
430.2000,0.135745
430.0000,0.135323
429.8000,0.134906
429.6000,0.13449
429.4000,0.134074
429.2000,0.133641
429.0000,0.133215
428.8000,0.132791
428.6000,0.132358
428.4000,0.131912
428.2000,0.131467
428.0000,0.131028
427.8000,0.130589
427.6000,0.130146
427.4000,0.129711
427.2000,0.129264
427.0000,0.128803
426.8000,0.128345
426.6000,0.12791
426.4000,0.127451
426.2000,0.126966
426.0000,0.126511
425.8000,0.126026
425.6000,0.125555
425.4000,0.125058
425.2000,0.12457
425.0000,0.124078
424.8000,0.123564
424.6000,0.123052
424.4000,0.122544
424.2000,0.122038
424.0000,0.121515
423.8000,0.121008
423.6000,0.120514
423.4000,0.119979
423.2000,0.11946
423.0000,0.118952
422.8000,0.118416
422.6000,0.11789
422.4000,0.117371
422.2000,0.116868
422.0000,0.116327
421.8000,0.115807
421.6000,0.115292
421.4000,0.114767
421.2000,0.114251
421.0000,0.113753
420.8000,0.113328
420.6000,0.112891
420.4000,0.112428
420.2000,0.111944
420.0000,0.111476
419.8000,0.111019
419.6000,0.110565
419.4000,0.110151
419.2000,0.109703
419.0000,0.109255
418.8000,0.108834
418.6000,0.108384
418.4000,0.10786
418.2000,0.107306
418.0000,0.106709
417.8000,0.106084
417.6000,0.105374
417.4000,0.104656
417.2000,0.103971
417.0000,0.103311
416.8000,0.102639
416.6000,0.101975
416.4000,0.101304
416.2000,0.100586
416.0000,0.0999075
415.8000,0.0992254
415.6000,0.0985336
415.4000,0.0978656
415.2000,0.0972591
415.0000,0.0966978
414.8000,0.096141
414.6000,0.0956012
414.4000,0.0950785
414.2000,0.0945474
414.0000,0.0940106
413.8000,0.0934884
413.6000,0.0929644
413.4000,0.0924324
413.2000,0.091882
413.0000,0.091378
412.8000,0.0908559
412.6000,0.0902829
412.4000,0.089718
412.2000,0.089183
412.0000,0.0886631
411.8000,0.088138
411.6000,0.0876563
411.4000,0.0871527
411.2000,0.0866654
411.0000,0.0862176
410.8000,0.0857407
410.6000,0.0852981
410.4000,0.084854
410.2000,0.0843818
410.0000,0.0839349
409.8000,0.0834565
409.6000,0.0829884
409.4000,0.0825265
409.2000,0.0821061
409.0000,0.0816827
408.8000,0.0812916
408.6000,0.0808923
408.4000,0.0804971
408.2000,0.0801282
408.0000,0.0797327
407.8000,0.079353
407.6000,0.0789824
407.4000,0.0786172
407.2000,0.0782448
407.0000,0.0779106
406.8000,0.0775736
406.6000,0.0772197
406.4000,0.0768987
406.2000,0.0766515
406.0000,0.076394
405.8000,0.0760329
405.6000,0.0756795
405.4000,0.0753947
405.2000,0.0750993
405.0000,0.0748395
404.8000,0.0746533
404.6000,0.0744021
404.4000,0.0741725
404.2000,0.0739112
404.0000,0.0736863
403.8000,0.0734927
403.6000,0.0733158
403.4000,0.0731992
403.2000,0.0730386
403.0000,0.0728557
402.8000,0.0726681
402.6000,0.0726055
402.4000,0.0725386
402.2000,0.0724737
402.0000,0.0723623
401.8000,0.0722571
401.6000,0.0721121
401.4000,0.072055
401.2000,0.0719978
401.0000,0.0719531
400.8000,0.0719377
400.6000,0.0718496
400.4000,0.0718328
400.2000,0.0717541
400.0000,0.06722
399.8000,0.0671889
399.6000,0.0671783
399.4000,0.0671827
399.2000,0.067193
399.0000,0.0672049
398.8000,0.0672649
398.6000,0.0673231
398.4000,0.0673855
398.2000,0.0674743
398.0000,0.0675685
397.8000,0.0676748
397.6000,0.0678114
397.4000,0.0679563
397.2000,0.0681187
397.0000,0.0683151
396.8000,0.068508
396.6000,0.0687154
396.4000,0.0689229
396.2000,0.0691617
396.0000,0.0694016
395.8000,0.0696639
395.6000,0.0699355
395.4000,0.070225
395.2000,0.07054
395.0000,0.0708537
394.8000,0.0712158
394.6000,0.0716201
394.4000,0.0720227
394.2000,0.0724455
394.0000,0.0728649
393.8000,0.0733115
393.6000,0.0737907
393.4000,0.0743032
393.2000,0.0748256
393.0000,0.0754037
392.8000,0.0759809
392.6000,0.0765728
392.4000,0.0771963
392.2000,0.0778399
392.0000,0.0784914
391.8000,0.0791752
391.6000,0.0798692
391.4000,0.0805687
391.2000,0.0813228
391.0000,0.0820794
390.8000,0.0828482
390.6000,0.0836612
390.4000,0.0844899
390.2000,0.0853331
390.0000,0.0861987
389.8000,0.0870527
389.6000,0.0879569
389.4000,0.0888932
389.2000,0.0898296
389.0000,0.0907952
388.8000,0.0917834
388.6000,0.0928198
388.4000,0.0938199
388.2000,0.0948497
388.0000,0.095871
387.8000,0.0969428
387.6000,0.0980549
387.4000,0.0991706
387.2000,0.100297
387.0000,0.101455
386.8000,0.102647
386.6000,0.103863
386.4000,0.105084
386.2000,0.106334
386.0000,0.107606
385.8000,0.108892
385.6000,0.110194
385.4000,0.11148
385.2000,0.112856
385.0000,0.114221
384.8000,0.115648
384.6000,0.117063
384.4000,0.118502
384.2000,0.119945
384.0000,0.121411
383.8000,0.122878
383.6000,0.124384
383.4000,0.125887
383.2000,0.127422
383.0000,0.128971
382.8000,0.130539
382.6000,0.132125
382.4000,0.133722
382.2000,0.135368
382.0000,0.136986
381.8000,0.13865
381.6000,0.140273
381.4000,0.141919
381.2000,0.143567
381.0000,0.145255
380.8000,0.146924
380.6000,0.148623
380.4000,0.150302
380.2000,0.152017
380.0000,0.153723
379.8000,0.155429
379.6000,0.157122
379.4000,0.158815
379.2000,0.16054
379.0000,0.162236
378.8000,0.163952
378.6000,0.165635
378.4000,0.167348
378.2000,0.169072
378.0000,0.170764
377.8000,0.172459
377.6000,0.174191
377.4000,0.175885
377.2000,0.177568
377.0000,0.179241
376.8000,0.180902
376.6000,0.182557
376.4000,0.184228
376.2000,0.18591
376.0000,0.187558
375.8000,0.189233
375.6000,0.190882
375.4000,0.192524
375.2000,0.194163
375.0000,0.195797
374.8000,0.197438
374.6000,0.199045
374.4000,0.200624
374.2000,0.202214
374.0000,0.203785
373.8000,0.205332
373.6000,0.206885
373.4000,0.208437
373.2000,0.209987
373.0000,0.211503
372.8000,0.213031
372.6000,0.214495
372.4000,0.215975
372.2000,0.217432
372.0000,0.218883
371.8000,0.220312
371.6000,0.221765
371.4000,0.22316
371.2000,0.224571
371.0000,0.225968
370.8000,0.2274
370.6000,0.228798
370.4000,0.230219
370.2000,0.231601
370.0000,0.235827
369.8000,0.237129
369.6000,0.238408
369.4000,0.239742
369.2000,0.24103
369.0000,0.242293
368.8000,0.243622
368.6000,0.244827
368.4000,0.246156
368.2000,0.247443
368.0000,0.248727
367.8000,0.249962
367.6000,0.251265
367.4000,0.252532
367.2000,0.25379
367.0000,0.255063
366.8000,0.256269
366.6000,0.257541
366.4000,0.258773
366.2000,0.259998
366.0000,0.261237
365.8000,0.262523
365.6000,0.263747
365.4000,0.265029
365.2000,0.266256
365.0000,0.267544
364.8000,0.268824
364.6000,0.270154
364.4000,0.271408
364.2000,0.272686
364.0000,0.273992
363.8000,0.275269
363.6000,0.276626
363.4000,0.277938
363.2000,0.279338
363.0000,0.280652
362.8000,0.282
362.6000,0.283326
362.4000,0.284681
362.2000,0.286044
362.0000,0.287391
361.8000,0.288717
361.6000,0.290109
361.4000,0.291451
361.2000,0.292818
361.0000,0.294201
360.8000,0.295568
360.6000,0.296934
360.4000,0.29831
360.2000,0.29968
360.0000,0.300996
359.8000,0.302423
359.6000,0.30378
359.4000,0.305155
359.2000,0.306545
359.0000,0.307945
358.8000,0.309345
358.6000,0.310739
358.4000,0.312146
358.2000,0.313527
358.0000,0.314911
357.8000,0.316308
357.6000,0.317698
357.4000,0.319133
357.2000,0.320511
357.0000,0.321889
356.8000,0.323253
356.6000,0.324597
356.4000,0.325966
356.2000,0.32734
356.0000,0.328696
355.8000,0.330047
355.6000,0.331415
355.4000,0.332727
355.2000,0.334003
355.0000,0.335274
354.8000,0.336584
354.6000,0.33784
354.4000,0.339132
354.2000,0.34034
354.0000,0.341584
353.8000,0.342839
353.6000,0.344086
353.4000,0.345341
353.2000,0.346595
353.0000,0.347781
352.8000,0.348929
352.6000,0.350087
352.4000,0.351196
352.2000,0.352353
352.0000,0.353468
351.8000,0.35464
351.6000,0.355764
351.4000,0.356908
351.2000,0.358008
351.0000,0.359138
350.8000,0.360216
350.6000,0.36129
350.4000,0.362362
350.2000,0.363447
350.0000,0.364522
349.8000,0.365587
349.6000,0.366672
349.4000,0.36776
349.2000,0.368882
349.0000,0.369978
348.8000,0.371079
348.6000,0.372156
348.4000,0.373252
348.2000,0.374306
348.0000,0.375374
347.8000,0.376481
347.6000,0.377597
347.4000,0.378673
347.2000,0.379805
347.0000,0.380891
346.8000,0.382015
346.6000,0.383176
346.4000,0.384351
346.2000,0.385465
346.0000,0.386552
345.8000,0.387724
345.6000,0.388878
345.4000,0.390079
345.2000,0.391261
345.0000,0.392478
344.8000,0.393712
344.6000,0.3949
344.4000,0.396096
344.2000,0.397378
344.0000,0.39861
343.8000,0.399903
343.6000,0.401128
343.4000,0.402379
343.2000,0.403655
343.0000,0.404938
342.8000,0.406319
342.6000,0.407608
342.4000,0.409008
342.2000,0.410308
342.0000,0.411613
341.8000,0.412966
341.6000,0.4144
341.4000,0.415806
341.2000,0.417241
341.0000,0.418674
340.8000,0.420118
340.6000,0.42147
340.4000,0.422936
340.2000,0.424437
340.0000,0.422001
339.8000,0.423323
339.6000,0.424726
339.4000,0.42613
339.2000,0.427595
339.0000,0.429092
338.8000,0.430633
338.6000,0.43211
338.4000,0.433563
338.2000,0.435025
338.0000,0.43651
337.8000,0.437811
337.6000,0.439339
337.4000,0.44072
337.2000,0.442246
337.0000,0.443713
336.8000,0.445101
336.6000,0.44652
336.4000,0.448049
336.2000,0.449454
336.0000,0.451246
335.8000,0.453286
335.6000,0.454921
335.4000,0.456585
335.2000,0.45813
335.0000,0.459549
334.8000,0.461051
334.6000,0.462616
334.4000,0.463908
334.2000,0.465257
334.0000,0.466611
333.8000,0.467942
333.6000,0.469218
333.4000,0.47046
333.2000,0.471761
333.0000,0.473057
332.8000,0.473918
332.6000,0.474508
332.4000,0.475521
332.2000,0.476585
332.0000,0.477663
331.8000,0.478979
331.6000,0.480103
331.4000,0.481261
331.2000,0.482465
331.0000,0.483647
330.8000,0.484783
330.6000,0.48585
330.4000,0.48711
330.2000,0.488322
330.0000,0.489462
329.8000,0.490545
329.6000,0.49163
329.4000,0.492715
329.2000,0.49383
329.0000,0.494817
328.8000,0.495899
328.6000,0.496775
328.4000,0.497804
328.2000,0.498834
328.0000,0.499884
327.8000,0.500882
327.6000,0.50193
327.4000,0.503
327.2000,0.503838
327.0000,0.504714
326.8000,0.505542
326.6000,0.506434
326.4000,0.507388
326.2000,0.508149
326.0000,0.508962
325.8000,0.509805
325.6000,0.510598
325.4000,0.511387
325.2000,0.512066
325.0000,0.512707
324.8000,0.513387
324.6000,0.514055
324.4000,0.514688
324.2000,0.515257
324.0000,0.515881
323.8000,0.516502
323.6000,0.517095
323.4000,0.517691
323.2000,0.51822
323.0000,0.51884
322.8000,0.519406
322.6000,0.519914
322.4000,0.520292
322.2000,0.520763
322.0000,0.521197
321.8000,0.521657
321.6000,0.521966
321.4000,0.522316
321.2000,0.522598
321.0000,0.522874
320.8000,0.523158
320.6000,0.523378
320.4000,0.523654
320.2000,0.523853
320.0000,0.524088
319.8000,0.524274
319.6000,0.52445
319.4000,0.524662
319.2000,0.525004
319.0000,0.525243
318.8000,0.525473
318.6000,0.525644
318.4000,0.525897
318.2000,0.52613
318.0000,0.526348
317.8000,0.526633
317.6000,0.526887
317.4000,0.527147
317.2000,0.527373
317.0000,0.527519
316.8000,0.527666
316.6000,0.527752
316.4000,0.527803
316.2000,0.527878
316.0000,0.527945
315.8000,0.527941
315.6000,0.528001
315.4000,0.528037
315.2000,0.527999
315.0000,0.527994
314.8000,0.527981
314.6000,0.527923
314.4000,0.527794
314.2000,0.527672
314.0000,0.527516
313.8000,0.527443
313.6000,0.527188
313.4000,0.527097
313.2000,0.526952
313.0000,0.526668
312.8000,0.526362
312.6000,0.526108
312.4000,0.525812
312.2000,0.525491
312.0000,0.525149
311.8000,0.524729
311.6000,0.524368
311.4000,0.52392
311.2000,0.523493
311.0000,0.523012
310.8000,0.522515
310.6000,0.521878
310.4000,0.521392
310.2000,0.520803
310.0000,0.520191
309.8000,0.519548
309.6000,0.518903
309.4000,0.518283
309.2000,0.517533
309.0000,0.516799
308.8000,0.516112
308.6000,0.515385
308.4000,0.514593
308.2000,0.513865
308.0000,0.513055
307.8000,0.512251
307.6000,0.511449
307.4000,0.510785
307.2000,0.509896
307.0000,0.508995
306.8000,0.508149
306.6000,0.507314
306.4000,0.506438
306.2000,0.505458
306.0000,0.504576
305.8000,0.503637
305.6000,0.50266
305.4000,0.501684
305.2000,0.500596
305.0000,0.499518
304.8000,0.498509
304.6000,0.497478
304.4000,0.496367
304.2000,0.495229
304.0000,0.494223
303.8000,0.493128
303.6000,0.491988
303.4000,0.490874
303.2000,0.489728
303.0000,0.488587
302.8000,0.487451
302.6000,0.486312
302.4000,0.485194
302.2000,0.484043
302.0000,0.482976
301.8000,0.481789
301.6000,0.480586
301.4000,0.479366
301.2000,0.478209
301.0000,0.476985
300.8000,0.475682
300.6000,0.47445
300.4000,0.47322
300.2000,0.471985
300.0000,0.470688
299.8000,0.469501
299.6000,0.468278
299.4000,0.467104
299.2000,0.465869
299.0000,0.464649
298.8000,0.463382
298.6000,0.46222
298.4000,0.461033
298.2000,0.459901
298.0000,0.458701
297.8000,0.457511
297.6000,0.456393
297.4000,0.455232
297.2000,0.454043
297.0000,0.452934
296.8000,0.451886
296.6000,0.45065
296.4000,0.449528
296.2000,0.448344
296.0000,0.447216
295.8000,0.446097
295.6000,0.444952
295.4000,0.443828
295.2000,0.442727
295.0000,0.441611
294.8000,0.440507
294.6000,0.439429
294.4000,0.438368
294.2000,0.437353
294.0000,0.436316
293.8000,0.435202
293.6000,0.434109
293.4000,0.433103
293.2000,0.432035
293.0000,0.430997
292.8000,0.429975
292.6000,0.42894
292.4000,0.427988
292.2000,0.426937
292.0000,0.425889
291.8000,0.424835
291.6000,0.423798
291.4000,0.422728
291.2000,0.421659
291.0000,0.420535
290.8000,0.419495
290.6000,0.418471
290.4000,0.417427
290.2000,0.416407
290.0000,0.415318
289.8000,0.41423
289.6000,0.413041
289.4000,0.411988
289.2000,0.410878
289.0000,0.40972
288.8000,0.408585
288.6000,0.407424
288.4000,0.406249
288.2000,0.405132
288.0000,0.40395
287.8000,0.402866
287.6000,0.401671
287.4000,0.400484
287.2000,0.399273
287.0000,0.398022
286.8000,0.396783
286.6000,0.395509
286.4000,0.394276
286.2000,0.392932
286.0000,0.391578
285.8000,0.390268
285.6000,0.388973
285.4000,0.38768
285.2000,0.386343
285.0000,0.384978
284.8000,0.383569
284.6000,0.382107
284.4000,0.380666
284.2000,0.379227
284.0000,0.377823
283.8000,0.37645
283.6000,0.37517
283.4000,0.373877
283.2000,0.372576
283.0000,0.371345
282.8000,0.370133
282.6000,0.36894
282.4000,0.36774
282.2000,0.366548
282.0000,0.3654
281.8000,0.364262
281.6000,0.363159
281.4000,0.362138
281.2000,0.361165
281.0000,0.36021
280.8000,0.359301
280.6000,0.358433
280.4000,0.357551
280.2000,0.35673
280.0000,0.355967
279.8000,0.35518
279.6000,0.354476
279.4000,0.353866
279.2000,0.353282
279.0000,0.35277
278.8000,0.352291
278.6000,0.351931
278.4000,0.35166
278.2000,0.351358
278.0000,0.351174
277.8000,0.351049
277.6000,0.351026
277.4000,0.350973
277.2000,0.350955
277.0000,0.350994
276.8000,0.351212
276.6000,0.351516
276.4000,0.351866
276.2000,0.352271
276.0000,0.352816
275.8000,0.353474
275.6000,0.354263
275.4000,0.355065
275.2000,0.355988
275.0000,0.357097
274.8000,0.358243
274.6000,0.359566
274.4000,0.360901
274.2000,0.362434
274.0000,0.364109
273.8000,0.365917
273.6000,0.367783
273.4000,0.369742
273.2000,0.371878
273.0000,0.37416
272.8000,0.3765
272.6000,0.378925
272.4000,0.38149
272.2000,0.384209
272.0000,0.387008
271.8000,0.389901
271.6000,0.392902
271.4000,0.396003
271.2000,0.399219
271.0000,0.402582
270.8000,0.406008
270.6000,0.40956
270.4000,0.413164
270.2000,0.416927
270.0000,0.420739
269.8000,0.424656
269.6000,0.428702
269.4000,0.432768
269.2000,0.436935
269.0000,0.441182
268.8000,0.445479
268.6000,0.449793
268.4000,0.454236
268.2000,0.45865
268.0000,0.463166
267.8000,0.467692
267.6000,0.472269
267.4000,0.476847
267.2000,0.481501
267.0000,0.486126
266.8000,0.490794
266.6000,0.495456
266.4000,0.500122
266.2000,0.504814
266.0000,0.509487
265.8000,0.514156
265.6000,0.518864
265.4000,0.523575
265.2000,0.528213
265.0000,0.532897
264.8000,0.53753
264.6000,0.542136
264.4000,0.54677
264.2000,0.551366
264.0000,0.555973
263.8000,0.560605
263.6000,0.565169
263.4000,0.569658
263.2000,0.574111
263.0000,0.578537
262.8000,0.582937
262.6000,0.587288
262.4000,0.591598
262.2000,0.59587
262.0000,0.600134
261.8000,0.604358
261.6000,0.608504
261.4000,0.612606
261.2000,0.616609
261.0000,0.620606
260.8000,0.624494
260.6000,0.628315
260.4000,0.632101
260.2000,0.63585
260.0000,0.639523
259.8000,0.64317
259.6000,0.646747
259.4000,0.650241
259.2000,0.653671
259.0000,0.657044
258.8000,0.660338
258.6000,0.66355
258.4000,0.666708
258.2000,0.669861
258.0000,0.672917
257.8000,0.675912
257.6000,0.678859
257.4000,0.681735
257.2000,0.684558
257.0000,0.687352
256.8000,0.690073
256.6000,0.692687
256.4000,0.695186
256.2000,0.697712
256.0000,0.700186
255.8000,0.70259
255.6000,0.704977
255.4000,0.707278
255.2000,0.709567
255.0000,0.711724
254.8000,0.713886
254.6000,0.71599
254.4000,0.718027
254.2000,0.719952
254.0000,0.721864
253.8000,0.723679
253.6000,0.725508
253.4000,0.727264
253.2000,0.729038
253.0000,0.730671
252.8000,0.732262
252.6000,0.733735
252.4000,0.735171
252.2000,0.736512
252.0000,0.737795
251.8000,0.73904
251.6000,0.740153
251.4000,0.741143
251.2000,0.742109
251.0000,0.743014
250.8000,0.74381
250.6000,0.744531
250.4000,0.745135
250.2000,0.745774
250.0000,0.74628
249.8000,0.746703
249.6000,0.747032
249.4000,0.747312
249.2000,0.74746
249.0000,0.747554
248.8000,0.747545
248.6000,0.747446
248.4000,0.747339
248.2000,0.747142
248.0000,0.746804
247.8000,0.746411
247.6000,0.745969
247.4000,0.745467
247.2000,0.744851
247.0000,0.744098
246.8000,0.743372
246.6000,0.742531
246.4000,0.741637
246.2000,0.740737
246.0000,0.73973
245.8000,0.738622
245.6000,0.737413
245.4000,0.736097
245.2000,0.734586
245.0000,0.733103
244.8000,0.731423
244.6000,0.729651
244.4000,0.727566
244.2000,0.725423
244.0000,0.72324
243.8000,0.720833
243.6000,0.718274
243.4000,0.715337
243.2000,0.711964
243.0000,0.708145
242.8000,0.704219
242.6000,0.700013
242.4000,0.695633
242.2000,0.690878
242.0000,0.686074
241.8000,0.680731
241.6000,0.675306
241.4000,0.669567
241.2000,0.663808
241.0000,0.658057
240.8000,0.651676
240.6000,0.64594
240.4000,0.639989
240.2000,0.634446
240.0000,0.629759
239.8000,0.625321
239.6000,0.620686
239.4000,0.617152
239.2000,0.61325
239.0000,0.610316
238.8000,0.607323
238.6000,0.605304
238.4000,0.603798
238.2000,0.602477
238.0000,0.601849
237.8000,0.600235
237.6000,0.600017
237.4000,0.599817
237.2000,0.599118
237.0000,0.599265
236.8000,0.599223
236.6000,0.598971
236.4000,0.598777
236.2000,0.5984
236.0000,0.598825
235.8000,0.598914
235.6000,0.59898
235.4000,0.598634
235.2000,0.59901
235.0000,0.598969
234.8000,0.59851
234.6000,0.598771
234.4000,0.598955
234.2000,0.598399
234.0000,0.598131
233.8000,0.597744
233.6000,0.597409
233.4000,0.597708
233.2000,0.597668
233.0000,0.597957
232.8000,0.597443
232.6000,0.597968
232.4000,0.59832
232.2000,0.598472
232.0000,0.598142
231.8000,0.598638
231.6000,0.598563
231.4000,0.598592
231.2000,0.598314
231.0000,0.598656
230.8000,0.59932
230.6000,0.599249
230.4000,0.599492
230.2000,0.599434
230.0000,0.599548
229.8000,0.599428
229.6000,0.599787
229.4000,0.599643
229.2000,0.599071
229.0000,0.598876
228.8000,0.599337
228.6000,0.599033
228.4000,0.599007
228.2000,0.599154
228.0000,0.599092
227.8000,0.598969
227.6000,0.598485
227.4000,0.598606
227.2000,0.598401
227.0000,0.597763
226.8000,0.597732
226.6000,0.597861
226.4000,0.598333
226.2000,0.597552
226.0000,0.597667
225.8000,0.597778
225.6000,0.597777
225.4000,0.597518
225.2000,0.597766
225.0000,0.597967
224.8000,0.598101
224.6000,0.59847
224.4000,0.598804
224.2000,0.599102
224.0000,0.599138
223.8000,0.599834
223.6000,0.600323
223.4000,0.600489
223.2000,0.600383
223.0000,0.600276
222.8000,0.600273
222.6000,0.600543
222.4000,0.599814
222.2000,0.600072
222.0000,0.600219
221.8000,0.600033
221.6000,0.600513
221.4000,0.600452
221.2000,0.600939
221.0000,0.600841
220.8000,0.600814
220.6000,0.600796
220.4000,0.601418
220.2000,0.601239
220.0000,0.600863
219.8000,0.601206
219.6000,0.601342
219.4000,0.601681
219.2000,0.602256
219.0000,0.602155
218.8000,0.602372
218.6000,0.602539
218.4000,0.60153
218.2000,0.601131
218.0000,0.600696
217.8000,0.600479
217.6000,0.600267
217.4000,0.60064
217.2000,0.599803
217.0000,0.60002
216.8000,0.600288
216.6000,0.600246
216.4000,0.60037
216.2000,0.599986
216.0000,0.599969
215.8000,0.599874
215.6000,0.599451
215.4000,0.599218
215.2000,0.599484
215.0000,0.599638
214.8000,0.599158
214.6000,0.59967
214.4000,0.599805
214.2000,0.599519
214.0000,0.599637
213.8000,0.599642
213.6000,0.599427
213.4000,0.599467
213.2000,0.599517
213.0000,0.599956
212.8000,0.599522
212.6000,0.600233
212.4000,0.600669
212.2000,0.601026
212.0000,0.601904
211.8000,0.60243
211.6000,0.602795
211.4000,0.603003
211.2000,0.603566
211.0000,0.603538
210.8000,0.604069
210.6000,0.604511
210.4000,0.605415
210.2000,0.606118
210.0000,0.606297
209.8000,0.606331
209.6000,0.606914
209.4000,0.60643
209.2000,0.606906
209.0000,0.60713
208.8000,0.606947
208.6000,0.607211
208.4000,0.607408
208.2000,0.607761
208.0000,0.608514
207.8000,0.609677
207.6000,0.609968
207.4000,0.609892
207.2000,0.610602
207.0000,0.610584
206.8000,0.61153
206.6000,0.61208
206.4000,0.612664
206.2000,0.613434
206.0000,0.61343
205.8000,0.613913
205.6000,0.614418
205.4000,0.615043
205.2000,0.615886
205.0000,0.616027
204.8000,0.616606
204.6000,0.616487
204.4000,0.616923
204.2000,0.617692
204.0000,0.61764
203.8000,0.61797
203.6000,0.618121
203.4000,0.618225
203.2000,0.618923
203.0000,0.61955
202.8000,0.620454
202.6000,0.621008
202.4000,0.621645
202.2000,0.621938
202.0000,0.622232
201.8000,0.622875
201.6000,0.623095
201.4000,0.623562
201.2000,0.623625
201.0000,0.623774
200.8000,0.623957
200.6000,0.624531
200.4000,0.624697
200.2000,0.625538
200.0000,0.625701

##### Extended Information
[Rg]
,c
Rg


,{ww

[f[^]
,2024/07/09 17:34

f[^^Cv,uf[^
,Wavelength [nm]
c,Abs
X^[g,800 nm
Gh,200 nm
f[^u,0.2 nm
f[^,3001    

[]
u,V-730
@,V-730
VA,C235561798

,2024/07/09 17:32

[h,Abs
,800 - 200 nm
f[^u,0.2 nm
oh,1.0 nm
X|X,0.96 sec
[h,A
x,200 nm/min
,340 nm
,D2/WI
tB^[,Xebv
,x[XC
J,1

